PC/104 FIRe Fluorometer 2.0.0
 4/ 8/2025     27325
LED Color:           blue
Gain:               2000
Sample Delay (msec):    10
Number Samples:   3
STF (usec):      150
STRP (#samples):       35
STRI (usec):       60
MTF (ms):        0
MTF (#samples):     0
MTRP (#samples):        0
MTRI (usec):      100
PQLen:     4
Ambient Light Source Power: Off
PAR (uMol/m^2/s):171.50
Comment:
Depth(m):   3.3
Temperature(C):  42.4
Battery(V):  16.33

         Time    EX   Fl-Yield 
DATA--------------------------
   0         0     0       0.0 
   1         1   156     119.7 
   2         2   817     150.6 
   3         3   953     182.2 
   4         4   969     107.7 
   5         5   972     200.6 
   6         6   973     134.3 
   7         7   973     155.9 
   8         8   977     132.4 
   9         9   974     144.1 
  10        10   975     159.3 
  11        11   976     146.2 
  12        12   977     158.3 
  13        13   977     146.4 
  14        14   977     218.4 
  15        15   977     127.6 
  16        16   978     167.0 
  17        17   980     117.0 
  18        18   977     224.8 
  19        19   978     137.0 
  20        20   979     132.4 
  21        21   980     126.5 
  22        22   979     135.9 
  23        23   979     134.8 
  24        24   979      89.2 
  25        25   980     117.0 
  26        26   980     120.1 
  27        27   978     125.1 
  28        28   980     158.2 
  29        29   980     154.8 
  30        30   980     116.7 
  31        31   980     145.9 
  32        32   980      99.3 
  33        33   980     157.8 
  34        34   981     138.0 
  35        35   981     168.9 
  36        36   980     202.7 
  37        37   981     117.2 
  38        38   980     136.4 
  39        39   981     129.5 
  40        40   980     197.6 
  41        41   981     164.1 
  42        42   980     245.2 
  43        43   982     159.2 
  44        44   981     141.7 
  45        45   980     138.8 
  46        46   981     151.9 
  47        47   982     144.3 
  48        48   982     214.2 
  49        49   981     156.3 
  50        50   981     129.5 
  51        51   980     121.8 
  52        52   983     157.3 
  53        53   981     167.2 
  54        54   981     162.1 
  55        55   981     131.8 
  56        56   982     125.6 
  57        57   982     175.2 
  58        58   981     180.1 
  59        59   981     148.1 
  60        60   980     165.0 
  61        61   983     160.1 
  62        62   981     139.7 
  63        63   981     106.7 
  64        64   981     152.2 
  65        65   982     134.1 
  66        66   982     184.7 
  67        67   981     115.9 
  68        68   981     118.6 
  69        69   981     166.8 
  70        70   983     154.0 
  71        71   980     182.7 
  72        72   981     178.4 
  73        73   981     191.3 
  74        74   982     187.7 
  75        75   981     174.3 
  76        76   980     201.7 
  77        77   980     186.7 
  78        78   982     211.8 
  79        79   982     218.9 
  80        80   980     203.4 
  81        81   981     186.9 
  82        82   980     208.8 
  83        83   982     245.4 
  84        84   980     254.1 
  85        85   980     178.6 
  86        86   980     270.7 
  87        87   982     268.2 
  88        88   981     219.8 
  89        89   980     206.1 
  90        90   981     177.0 
  91        91   981     226.3 
  92        92   982     249.8 
  93        93   980     248.3 
  94        94   980     238.1 
  95        95   980     188.8 
  96        96   982     189.1 
  97        97   981     215.8 
  98        98   980     213.9 
  99        99   980     211.9 
 100       100   980     226.2 
 101       101   981     218.5 
 102       102   980     148.6 
 103       103   980     141.2 
 104       104   980     226.9 
 105       105   982     230.8 
 106       106   980     208.2 
 107       107   980     196.9 
 108       108   980     190.5 
 109       109   981     235.8 
 110       110   980     187.1 
 111       111   980     193.5 
 112       112   980     239.8 
 113       113   980     183.3 
 114       114   981     192.7 
 115       115   980     203.4 
 116       116   980     251.7 
 117       117   980     211.9 
 118       118   980     238.8 
 119       119   980     159.5 
 120       120   979     178.1 
 121       121   980     229.6 
 122       122   980     236.1 
 123       123   981     173.0 
 124       124   979     169.2 
 125       125   980     228.9 
 126       126   980     212.2 
 127       127   981     170.9 
 128       128   980     195.6 
 129       129   979     219.3 
 130       130   979     264.2 
 131       131   980     209.5 
 132       132   980     190.5 
 133       133   979     197.8 
 134       134   979     220.0 
 135       135   979     202.9 
 136       136   980     162.2 
 137       137   979     156.3 
 138       138   979     231.5 
 139       139   979     216.2 
 140       140   980     242.5 
 141       141   980     165.6 
 142       142   978     203.1 
 143       143   980     185.7 
 144       144   979     187.3 
 145       145   980     156.8 
 146       146   978     195.0 
 147       147   979     166.5 
 148       148   979     138.2 
 149       149   979     186.2 
 150       150   979     186.2 
 151       210  1000     318.0 
 152       270   997     175.5 
 153       330  1000     267.3 
 154       390   996     218.2 
 155       450   996     325.3 
 156       510   996     201.1 
 157       570   994     308.9 
 158       630   998     104.2 
 159       810   983     284.2 
 160       990   980     191.2 
 161      1170   985     206.8 
 162      1350   986     220.1 
 163      1530   981     162.4 
 164      2070   980     106.8 
 165      2691   973     159.6 
 166      3405   978     265.8 
 167      4226   978     202.5 
 168      5170   976     181.0 
 169      6256   975     340.5 
 170      7505   974     180.4 
 171      8941   977     224.8 
 172     10592   975     178.1 
 173     12491   973     120.9 
 174     14675   979      88.9 
 175     17187   975     342.9 
 176     20076   974     249.1 
 177     23398   977      70.3 
 178     27218   979     157.6 
 179     31611   980     283.3 
 180     36663   980     167.3 
 181     42473   977     269.5 
 182     49155   978     231.8 
 183     56839   980     255.8 
 184     65676   977      79.8 
 185     75839   981      79.8 
   1         1   156     -21.4 
   2         2   817     163.6 
   3         3   953     134.3 
   4         4   969     235.6 
   5         5   972     169.4 
   6         6   973     207.3 
   7         7   973     177.8 
   8         8   977     196.2 
   9         9   974     197.1 
  10        10   975     204.8 
  11        11   976     250.0 
  12        12   977     201.0 
  13        13   977     177.8 
  14        14   977     211.5 
  15        15   977     273.3 
  16        16   978     272.7 
  17        17   980     249.7 
  18        18   977     228.6 
  19        19   978     259.0 
  20        20   979     238.7 
  21        21   980     197.6 
  22        22   979     220.3 
  23        23   979     240.7 
  24        24   979     184.5 
  25        25   980     149.0 
  26        26   980     170.7 
  27        27   978     224.3 
  28        28   980     223.1 
  29        29   980     247.3 
  30        30   980     205.1 
  31        31   980     229.3 
  32        32   980     201.7 
  33        33   980     222.8 
  34        34   981     222.6 
  35        35   981     211.3 
  36        36   980     274.1 
  37        37   981     181.1 
  38        38   980     200.3 
  39        39   981     256.9 
  40        40   980     216.7 
  41        41   981     200.1 
  42        42   980     184.7 
  43        43   982     176.5 
  44        44   981     257.6 
  45        45   980     305.1 
  46        46   981     259.9 
  47        47   982     216.9 
  48        48   982     189.4 
  49        49   981     255.5 
  50        50   981     231.7 
  51        51   980     231.0 
  52        52   983     228.2 
  53        53   981     208.6 
  54        54   981     253.8 
  55        55   981     236.8 
  56        56   982     245.4 
  57        57   982     351.7 
  58        58   981     302.1 
  59        59   981     182.8 
  60        60   980     259.5 
  61        61   983     225.8 
  62        62   981     277.6 
  63        63   981     245.0 
  64        64   981     250.4 
  65        65   982     210.5 
  66        66   982     187.7 
  67        67   981     284.1 
  68        68   981     231.4 
  69        69   981     235.8 
  70        70   983     266.2 
  71        71   980     221.1 
  72        72   981     250.1 
  73        73   981     220.2 
  74        74   982     278.3 
  75        75   981     296.0 
  76        76   980     254.8 
  77        77   980     257.1 
  78        78   982     243.7 
  79        79   982     278.7 
  80        80   980     288.4 
  81        81   981     242.9 
  82        82   980     274.1 
  83        83   982     289.2 
  84        84   980     242.2 
  85        85   980     320.4 
  86        86   980     232.0 
  87        87   982     283.4 
  88        88   981     277.6 
  89        89   980     253.4 
  90        90   981     270.5 
  91        91   981     270.1 
  92        92   982     302.4 
  93        93   980     249.3 
  94        94   980     204.1 
  95        95   980     220.7 
  96        96   982     272.9 
  97        97   981     226.3 
  98        98   980     237.8 
  99        99   980     212.6 
 100       100   980     228.2 
 101       101   981     236.8 
 102       102   980     227.2 
 103       103   980     206.1 
 104       104   980     243.9 
 105       105   982     295.3 
 106       106   980     222.1 
 107       107   980     270.7 
 108       108   980     247.3 
 109       109   981     327.2 
 110       110   980     185.7 
 111       111   980     224.5 
 112       112   980     221.4 
 113       113   980     281.6 
 114       114   981     251.8 
 115       115   980     240.5 
 116       116   980     192.9 
 117       117   980     235.4 
 118       118   980     242.2 
 119       119   980     194.6 
 120       120   979     206.7 
 121       121   980     236.4 
 122       122   980     237.4 
 123       123   981     183.5 
 124       124   979     195.1 
 125       125   980     253.7 
 126       126   980     247.6 
 127       127   981     201.8 
 128       128   980     189.8 
 129       129   979     200.2 
 130       130   979     209.7 
 131       131   980     240.8 
 132       132   980     222.8 
 133       133   979     149.1 
 134       134   979     254.7 
 135       135   979     224.0 
 136       136   980     174.1 
 137       137   979     210.4 
 138       138   979     235.3 
 139       139   979     234.9 
 140       140   980     207.5 
 141       141   980     193.2 
 142       142   978     173.1 
 143       143   980     244.6 
 144       144   979     227.8 
 145       145   980     223.8 
 146       146   978     204.5 
 147       147   979     221.0 
 148       148   979     217.2 
 149       149   979     200.2 
 150       150   979     200.2 
 151       210  1000     327.0 
 152       270   997     346.0 
 153       330  1000     274.3 
 154       390   996     325.0 
 155       450   996     329.0 
 156       510   996     243.3 
 157       570   994     315.9 
 158       630   998     240.8 
 159       810   983     267.9 
 160       990   980     239.5 
 161      1170   985     213.9 
 162      1350   986     152.1 
 163      1530   981     180.1 
 164      2070   980     269.0 
 165      2691   973     131.6 
 166      3405   978     201.1 
 167      4226   978     205.5 
 168      5170   976     252.7 
 169      6256   975     249.9 
 170      7505   974      46.5 
 171      8941   977     211.5 
 172     10592   975     123.1 
 173     12491   973     215.8 
 174     14675   979     138.9 
 175     17187   975     144.3 
 176     20076   974     355.2 
 177     23398   977     178.8 
 178     27218   979     209.4 
 179     31611   980     155.1 
 180     36663   980     315.3 
 181     42473   977     161.7 
 182     49155   978      65.1 
 183     56839   980     223.8 
 184     65676   977     280.5 
 185     75839   981     280.5 
