PC/104 FIRe Fluorometer 2.0.0
 4/ 8/2025     28217
LED Color:           blue
Gain:               2000
Sample Delay (msec):    10
Number Samples:   3
STF (usec):      150
STRP (#samples):       35
STRI (usec):       60
MTF (ms):        0
MTF (#samples):     0
MTRP (#samples):        0
MTRI (usec):      100
PQLen:     4
Ambient Light Source Power: Off
PAR (uMol/m^2/s):900.00
Comment:
Depth(m):   3.9
Temperature(C):  46.2
Battery(V):  16.19

         Time    EX   Fl-Yield 
DATA--------------------------
   0         0     0       0.0 
   1         1   156     -51.3 
   2         2   817     156.3 
   3         3   953     234.0 
   4         4   969     306.5 
   5         5   972     223.6 
   6         6   973     214.5 
   7         7   973     215.1 
   8         8   977     298.2 
   9         9   974     253.3 
  10        10   975     269.1 
  11        11   976     240.8 
  12        12   977     276.7 
  13        13   977     266.1 
  14        14   977     218.7 
  15        15   977     250.4 
  16        16   978     269.9 
  17        17   980     335.7 
  18        18   977     254.9 
  19        19   978     266.2 
  20        20   979     293.2 
  21        21   980     357.1 
  22        22   979     321.4 
  23        23   979     256.4 
  24        24   979     269.3 
  25        25   980     305.4 
  26        26   980     379.3 
  27        27   978     299.3 
  28        28   980     307.1 
  29        29   980     305.8 
  30        30   980     344.2 
  31        31   980     312.9 
  32        32   980     286.1 
  33        33   980     356.1 
  34        34   981     364.9 
  35        35   981     417.6 
  36        36   980     315.6 
  37        37   981     368.7 
  38        38   980     414.3 
  39        39   981     446.1 
  40        40   980     377.2 
  41        41   981     343.5 
  42        42   980     386.7 
  43        43   982     421.2 
  44        44   981     431.2 
  45        45   980     337.1 
  46        46   981     434.3 
  47        47   982     442.0 
  48        48   982     385.3 
  49        49   981     415.9 
  50        50   981     377.5 
  51        51   980     389.5 
  52        52   983     429.0 
  53        53   981     394.8 
  54        54   981     356.4 
  55        55   981     412.8 
  56        56   982     477.3 
  57        57   982     410.7 
  58        58   981     329.9 
  59        59   981     360.9 
  60        60   980     444.2 
  61        61   983     431.3 
  62        62   981     398.6 
  63        63   981     359.8 
  64        64   981     373.4 
  65        65   982     417.5 
  66        66   982     382.6 
  67        67   981     397.6 
  68        68   981     382.9 
  69        69   981     410.1 
  70        70   983     397.4 
  71        71   980     310.2 
  72        72   981     355.4 
  73        73   981     373.1 
  74        74   982     439.6 
  75        75   981     363.6 
  76        76   980     354.4 
  77        77   980     363.3 
  78        78   982     437.9 
  79        79   982     394.4 
  80        80   980     354.8 
  81        81   981     366.3 
  82        82   980     385.4 
  83        83   982     384.9 
  84        84   980     344.6 
  85        85   980     396.6 
  86        86   980     450.0 
  87        87   982     421.9 
  88        88   981     306.8 
  89        89   980     294.6 
  90        90   981     398.6 
  91        91   981     418.6 
  92        92   982     345.9 
  93        93   980     348.0 
  94        94   980     337.1 
  95        95   980     423.8 
  96        96   982     400.2 
  97        97   981     373.4 
  98        98   980     340.1 
  99        99   980     387.1 
 100       100   980     375.5 
 101       101   981     350.7 
 102       102   980     301.0 
 103       103   980     374.1 
 104       104   980     405.8 
 105       105   982     347.9 
 106       106   980     318.7 
 107       107   980     341.8 
 108       108   980     374.1 
 109       109   981     376.1 
 110       110   980     319.4 
 111       111   980     323.5 
 112       112   980     363.6 
 113       113   980     382.0 
 114       114   981     335.0 
 115       115   980     328.2 
 116       116   980     297.6 
 117       117   980     396.3 
 118       118   980     339.1 
 119       119   980     337.4 
 120       120   979     297.6 
 121       121   980     355.4 
 122       122   980     380.3 
 123       123   981     299.7 
 124       124   979     311.2 
 125       125   980     313.9 
 126       126   980     426.2 
 127       127   981     370.7 
 128       128   980     293.5 
 129       129   979     355.8 
 130       130   979     419.5 
 131       131   980     398.3 
 132       132   980     358.5 
 133       133   979     373.9 
 134       134   979     445.0 
 135       135   979     393.3 
 136       136   980     365.3 
 137       137   979     321.8 
 138       138   979     390.9 
 139       139   979     406.5 
 140       140   980     395.2 
 141       141   980     355.4 
 142       142   978     381.4 
 143       143   980     424.8 
 144       144   979     348.0 
 145       145   980     376.2 
 146       146   978     345.3 
 147       147   979     435.5 
 148       148   979     434.5 
 149       149   979     403.1 
 150       150   979     403.1 
 151       210  1000     272.3 
 152       270   997     245.7 
 153       330  1000     261.3 
 154       390   996     424.4 
 155       450   996     381.2 
 156       510   996     315.9 
 157       570   994     150.2 
 158       630   998     425.9 
 159       810   983     189.9 
 160       990   980     357.1 
 161      1170   985     386.5 
 162      1350   986     183.2 
 163      1530   981     352.0 
 164      2070   980     174.8 
 165      2691   973     181.6 
 166      3405   978     392.0 
 167      4226   978     112.1 
 168      5170   976     209.0 
 169      6256   975     332.6 
 170      7505   974     293.0 
 171      8941   977     228.2 
 172     10592   975     214.4 
 173     12491   973     284.7 
 174     14675   979     240.0 
 175     17187   975     172.3 
 176     20076   974     296.0 
 177     23398   977     244.6 
 178     27218   979     153.9 
 179     31611   980     395.9 
 180     36663   980      85.7 
 181     42473   977     286.9 
 182     49155   978     222.9 
 183     56839   980     206.1 
 184     65676   977     298.9 
 185     75839   981     298.9 
   1         1   156     346.2 
   2         2   817     481.8 
   3         3   953     489.7 
   4         4   969     534.2 
   5         5   972     483.2 
   6         6   973     473.4 
   7         7   973     460.1 
   8         8   977     571.1 
   9         9   974     618.4 
  10        10   975     627.4 
  11        11   976     669.7 
  12        12   977     655.7 
  13        13   977     687.8 
  14        14   977     698.1 
  15        15   977     651.3 
  16        16   978     669.4 
  17        17   980     717.3 
  18        18   977     667.0 
  19        19   978     592.7 
  20        20   979     610.8 
  21        21   980     606.8 
  22        22   979     559.4 
  23        23   979     501.2 
  24        24   979     526.7 
  25        25   980     595.9 
  26        26   980     611.2 
  27        27   978     584.5 
  28        28   980     577.6 
  29        29   980     531.6 
  30        30   980     592.5 
  31        31   980     553.7 
  32        32   980     534.7 
  33        33   980     494.9 
  34        34   981     507.3 
  35        35   981     500.8 
  36        36   980     508.5 
  37        37   981     527.0 
  38        38   980     516.0 
  39        39   981     608.6 
  40        40   980     507.8 
  41        41   981     514.4 
  42        42   980     504.1 
  43        43   982     507.1 
  44        44   981     580.7 
  45        45   980     527.9 
  46        46   981     535.5 
  47        47   982     518.7 
  48        48   982     568.6 
  49        49   981     546.4 
  50        50   981     569.5 
  51        51   980     531.0 
  52        52   983     583.9 
  53        53   981     534.5 
  54        54   981     526.7 
  55        55   981     481.8 
  56        56   982     518.0 
  57        57   982     537.7 
  58        58   981     531.1 
  59        59   981     530.8 
  60        60   980     504.1 
  61        61   983     575.4 
  62        62   981     530.8 
  63        63   981     477.1 
  64        64   981     493.4 
  65        65   982     568.9 
  66        66   982     585.5 
  67        67   981     476.4 
  68        68   981     517.8 
  69        69   981     560.3 
  70        70   983     477.4 
  71        71   980     495.2 
  72        72   981     496.4 
  73        73   981     515.5 
  74        74   982     524.8 
  75        75   981     530.8 
  76        76   980     441.8 
  77        77   980     518.0 
  78        78   982     517.7 
  79        79   982     502.7 
  80        80   980     492.9 
  81        81   981     477.7 
  82        82   980     462.9 
  83        83   982     447.0 
  84        84   980     542.9 
  85        85   980     506.8 
  86        86   980     517.7 
  87        87   982     556.3 
  88        88   981     481.8 
  89        89   980     408.8 
  90        90   981     435.3 
  91        91   981     477.1 
  92        92   982     502.4 
  93        93   980     487.4 
  94        94   980     469.4 
  95        95   980     491.2 
  96        96   982     557.0 
  97        97   981     498.8 
  98        98   980     476.9 
  99        99   980     424.8 
 100       100   980     462.9 
 101       101   981     504.2 
 102       102   980     459.2 
 103       103   980     473.8 
 104       104   980     472.1 
 105       105   982     569.6 
 106       106   980     507.8 
 107       107   980     489.5 
 108       108   980     513.3 
 109       109   981     544.0 
 110       110   980     499.3 
 111       111   980     479.9 
 112       112   980     467.3 
 113       113   980     517.7 
 114       114   981     602.8 
 115       115   980     446.3 
 116       116   980     537.4 
 117       117   980     508.2 
 118       118   980     556.8 
 119       119   980     520.4 
 120       120   979     513.1 
 121       121   980     466.3 
 122       122   980     558.2 
 123       123   981     577.6 
 124       124   979     535.2 
 125       125   980     557.8 
 126       126   980     541.8 
 127       127   981     524.0 
 128       128   980     523.1 
 129       129   979     548.5 
 130       130   979     513.4 
 131       131   980     571.4 
 132       132   980     585.7 
 133       133   979     576.8 
 134       134   979     502.2 
 135       135   979     553.6 
 136       136   980     621.1 
 137       137   979     571.3 
 138       138   979     512.4 
 139       139   979     583.2 
 140       140   980     607.1 
 141       141   980     556.8 
 142       142   978     578.4 
 143       143   980     531.3 
 144       144   979     609.5 
 145       145   980     578.9 
 146       146   978     533.7 
 147       147   979     512.8 
 148       148   979     534.2 
 149       149   979     562.5 
 150       150   979     562.5 
 151       210  1000     349.7 
 152       270   997     593.4 
 153       330  1000     561.0 
 154       390   996     517.1 
 155       450   996     522.8 
 156       510   996     575.0 
 157       570   994     493.6 
 158       630   998     504.0 
 159       810   983     384.2 
 160       990   980     605.8 
 161      1170   985     404.1 
 162      1350   986     659.9 
 163      1530   981     517.8 
 164      2070   980     444.2 
 165      2691   973     433.0 
 166      3405   978     419.6 
 167      4226   978     540.6 
 168      5170   976     497.6 
 169      6256   975     500.9 
 170      7505   974     361.4 
 171      8941   977     403.3 
 172     10592   975     446.8 
 173     12491   973     448.4 
 174     14675   979     421.5 
 175     17187   975     407.2 
 176     20076   974     514.0 
 177     23398   977     314.6 
 178     27218   979     350.4 
 179     31611   980     355.1 
 180     36663   980     318.7 
 181     42473   977     274.7 
 182     49155   978     452.3 
 183     56839   980     189.1 
 184     65676   977     318.3 
 185     75839   981     318.3 
