PC/104 FIRe Fluorometer 2.0.0
 4/ 8/2025     33477
LED Color:           blue
Gain:               2000
Sample Delay (msec):    10
Number Samples:   3
STF (usec):      150
STRP (#samples):       35
STRI (usec):       60
MTF (ms):        0
MTF (#samples):     0
MTRP (#samples):        0
MTRI (usec):      100
PQLen:     4
Ambient Light Source Power: Off
PAR (uMol/m^2/s):628.47
Comment:
Depth(m):   1.6
Temperature(C):  67.1
Battery(V):  15.09

         Time    EX   Fl-Yield 
DATA--------------------------
   0         0     0       0.0 
   1         1   156     192.3 
   2         2   817     328.4 
   3         3   953     369.4 
   4         4   969     326.1 
   5         5   972     349.1 
   6         6   973     366.2 
   7         7   973     377.9 
   8         8   977     373.3 
   9         9   974     324.4 
  10        10   975     378.1 
  11        11   976     396.5 
  12        12   977     385.9 
  13        13   977     404.0 
  14        14   977     395.8 
  15        15   977     414.5 
  16        16   978     401.8 
  17        17   980     402.7 
  18        18   977     420.0 
  19        19   978     407.3 
  20        20   979     456.9 
  21        21   980     429.9 
  22        22   979     414.7 
  23        23   979     395.3 
  24        24   979     429.7 
  25        25   980     431.0 
  26        26   980     386.7 
  27        27   978     382.4 
  28        28   980     428.9 
  29        29   980     391.5 
  30        30   980     401.0 
  31        31   980     396.6 
  32        32   980     386.7 
  33        33   980     386.1 
  34        34   981     392.5 
  35        35   981     370.7 
  36        36   980     352.0 
  37        37   981     379.2 
  38        38   980     416.7 
  39        39   981     405.0 
  40        40   980     346.9 
  41        41   981     414.5 
  42        42   980     469.7 
  43        43   982     422.9 
  44        44   981     398.2 
  45        45   980     397.6 
  46        46   981     405.0 
  47        47   982     400.9 
  48        48   982     434.1 
  49        49   981     402.0 
  50        50   981     385.7 
  51        51   980     451.4 
  52        52   983     447.6 
  53        53   981     421.3 
  54        54   981     401.6 
  55        55   981     426.4 
  56        56   982     429.1 
  57        57   982     402.2 
  58        58   981     357.1 
  59        59   981     428.1 
  60        60   980     418.0 
  61        61   983     374.0 
  62        62   981     366.3 
  63        63   981     334.4 
  64        64   981     374.1 
  65        65   982     411.7 
  66        66   982     378.1 
  67        67   981     362.2 
  68        68   981     375.5 
  69        69   981     367.0 
  70        70   983     398.1 
  71        71   980     370.7 
  72        72   981     394.8 
  73        73   981     366.0 
  74        74   982     358.5 
  75        75   981     374.4 
  76        76   980     334.0 
  77        77   980     417.3 
  78        78   982     371.0 
  79        79   982     380.5 
  80        80   980     356.1 
  81        81   981     377.5 
  82        82   980     431.0 
  83        83   982     409.4 
  84        84   980     367.0 
  85        85   980     365.0 
  86        86   980     400.3 
  87        87   982     416.2 
  88        88   981     380.9 
  89        89   980     398.3 
  90        90   981     424.1 
  91        91   981     382.9 
  92        92   982     382.9 
  93        93   980     388.1 
  94        94   980     366.3 
  95        95   980     422.1 
  96        96   982     410.0 
  97        97   981     386.0 
  98        98   980     413.3 
  99        99   980     403.7 
 100       100   980     428.2 
 101       101   981     465.5 
 102       102   980     381.6 
 103       103   980     405.4 
 104       104   980     445.6 
 105       105   982     418.9 
 106       106   980     394.2 
 107       107   980     392.5 
 108       108   980     464.6 
 109       109   981     438.3 
 110       110   980     446.6 
 111       111   980     389.5 
 112       112   980     430.6 
 113       113   980     389.1 
 114       114   981     415.6 
 115       115   980     383.0 
 116       116   980     425.2 
 117       117   980     399.0 
 118       118   980     390.5 
 119       119   980     448.0 
 120       120   979     414.0 
 121       121   980     394.2 
 122       122   980     396.6 
 123       123   981     406.7 
 124       124   979     425.9 
 125       125   980     433.0 
 126       126   980     436.1 
 127       127   981     398.9 
 128       128   980     376.2 
 129       129   979     389.5 
 130       130   979     428.7 
 131       131   980     481.0 
 132       132   980     421.4 
 133       133   979     440.2 
 134       134   979     435.1 
 135       135   979     477.0 
 136       136   980     455.1 
 137       137   979     432.4 
 138       138   979     421.9 
 139       139   979     464.1 
 140       140   980     502.4 
 141       141   980     450.3 
 142       142   978     427.1 
 143       143   980     462.9 
 144       144   979     477.7 
 145       145   980     460.9 
 146       146   978     428.8 
 147       147   979     443.6 
 148       148   979     501.5 
 149       149   979     466.8 
 150       150   979     466.8 
 151       210  1000     288.3 
 152       270   997     508.2 
 153       330  1000     343.0 
 154       390   996     517.1 
 155       450   996     423.7 
 156       510   996     504.0 
 157       570   994     357.1 
 158       630   998     419.5 
 159       810   983     342.5 
 160       990   980     341.5 
 161      1170   985     226.1 
 162      1350   986     370.2 
 163      1530   981     450.9 
 164      2070   980     387.4 
 165      2691   973     292.6 
 166      3405   978     502.7 
 167      4226   978     351.1 
 168      5170   976     419.1 
 169      6256   975     350.8 
 170      7505   974     279.6 
 171      8941   977     397.8 
 172     10592   975     321.4 
 173     12491   973     485.8 
 174     14675   979     422.2 
 175     17187   975     332.0 
 176     20076   974     255.3 
 177     23398   977     380.1 
 178     27218   979     398.0 
 179     31611   980     177.9 
 180     36663   980     258.2 
 181     42473   977     281.1 
 182     49155   978     387.2 
 183     56839   980     427.2 
 184     65676   977     345.6 
 185     75839   981     345.6 
   1         1   156     153.8 
   2         2   817     408.0 
   3         3   953     385.1 
   4         4   969     385.6 
   5         5   972     351.9 
   6         6   973     444.3 
   7         7   973     362.5 
   8         8   977     370.2 
   9         9   974     425.1 
  10        10   975     507.7 
  11        11   976     492.8 
  12        12   977     421.4 
  13        13   977     466.4 
  14        14   977     486.2 
  15        15   977     544.2 
  16        16   978     473.4 
  17        17   980     508.2 
  18        18   977     424.4 
  19        19   978     516.4 
  20        20   979     444.3 
  21        21   980     415.0 
  22        22   979     440.9 
  23        23   979     422.2 
  24        24   979     426.3 
  25        25   980     389.5 
  26        26   980     367.7 
  27        27   978     415.5 
  28        28   980     431.3 
  29        29   980     405.1 
  30        30   980     360.9 
  31        31   980     380.3 
  32        32   980     392.9 
  33        33   980     438.1 
  34        34   981     345.9 
  35        35   981     351.0 
  36        36   980     410.2 
  37        37   981     430.2 
  38        38   980     394.2 
  39        39   981     404.3 
  40        40   980     362.6 
  41        41   981     428.8 
  42        42   980     415.0 
  43        43   982     395.5 
  44        44   981     396.2 
  45        45   980     405.1 
  46        46   981     411.5 
  47        47   982     376.8 
  48        48   982     355.1 
  49        49   981     388.4 
  50        50   981     474.3 
  51        51   980     419.7 
  52        52   983     396.4 
  53        53   981     418.6 
  54        54   981     397.2 
  55        55   981     451.6 
  56        56   982     422.3 
  57        57   982     371.0 
  58        58   981     400.6 
  59        59   981     456.0 
  60        60   980     423.1 
  61        61   983     462.9 
  62        62   981     421.3 
  63        63   981     432.6 
  64        64   981     451.6 
  65        65   982     436.2 
  66        66   982     479.0 
  67        67   981     444.8 
  68        68   981     494.7 
  69        69   981     438.0 
  70        70   983     376.4 
  71        71   980     385.7 
  72        72   981     454.0 
  73        73   981     455.0 
  74        74   982     424.3 
  75        75   981     438.3 
  76        76   980     407.8 
  77        77   980     494.6 
  78        78   982     422.9 
  79        79   982     409.4 
  80        80   980     419.7 
  81        81   981     460.1 
  82        82   980     426.2 
  83        83   982     404.3 
  84        84   980     409.2 
  85        85   980     451.4 
  86        86   980     428.6 
  87        87   982     412.1 
  88        88   981     384.6 
  89        89   980     400.7 
  90        90   981     455.0 
  91        91   981     437.0 
  92        92   982     382.2 
  93        93   980     428.9 
  94        94   980     462.2 
  95        95   980     491.2 
  96        96   982     493.9 
  97        97   981     466.2 
  98        98   980     468.0 
  99        99   980     511.6 
 100       100   980     455.1 
 101       101   981     458.4 
 102       102   980     473.8 
 103       103   980     488.4 
 104       104   980     459.9 
 105       105   982     454.5 
 106       106   980     463.6 
 107       107   980     454.1 
 108       108   980     566.7 
 109       109   981     466.2 
 110       110   980     442.2 
 111       111   980     468.7 
 112       112   980     518.0 
 113       113   980     459.2 
 114       114   981     435.6 
 115       115   980     456.8 
 116       116   980     460.9 
 117       117   980     471.8 
 118       118   980     392.2 
 119       119   980     407.1 
 120       120   979     464.4 
 121       121   980     482.3 
 122       122   980     451.0 
 123       123   981     380.6 
 124       124   979     412.7 
 125       125   980     466.3 
 126       126   980     463.3 
 127       127   981     433.6 
 128       128   980     405.8 
 129       129   979     412.0 
 130       130   979     450.5 
 131       131   980     482.3 
 132       132   980     415.3 
 133       133   979     402.1 
 134       134   979     427.6 
 135       135   979     420.5 
 136       136   980     399.0 
 137       137   979     430.0 
 138       138   979     422.9 
 139       139   979     461.7 
 140       140   980     387.4 
 141       141   980     431.0 
 142       142   978     394.7 
 143       143   980     510.5 
 144       144   979     418.1 
 145       145   980     400.3 
 146       146   978     379.3 
 147       147   979     446.0 
 148       148   979     460.0 
 149       149   979     455.2 
 150       150   979     455.2 
 151       210  1000     422.0 
 152       270   997     497.2 
 153       330  1000     467.3 
 154       390   996     427.7 
 155       450   996     545.5 
 156       510   996     292.2 
 157       570   994     515.8 
 158       630   998     285.6 
 159       810   983     494.4 
 160       990   980     609.2 
 161      1170   985     342.1 
 162      1350   986     413.5 
 163      1530   981     529.1 
 164      2070   980     562.2 
 165      2691   973     416.6 
 166      3405   978     512.6 
 167      4226   978     476.5 
 168      5170   976     472.0 
 169      6256   975     425.0 
 170      7505   974     378.9 
 171      8941   977     527.5 
 172     10592   975     322.7 
 173     12491   973     459.7 
 174     14675   979     561.1 
 175     17187   975     529.2 
 176     20076   974     308.0 
 177     23398   977     405.7 
 178     27218   979     420.5 
 179     31611   980     375.9 
 180     36663   980     395.9 
 181     42473   977     522.0 
 182     49155   978     353.8 
 183     56839   980     355.8 
 184     65676   977     444.6 
 185     75839   981     444.6 
