PC/104 FIRe Fluorometer 2.0.0
 4/ 8/2025     29643
LED Color:           blue
Gain:               1500
Sample Delay (msec):    10
Number Samples:   3
STF (usec):      150
STRP (#samples):       35
STRI (usec):       60
MTF (ms):        0
MTF (#samples):     0
MTRP (#samples):        0
MTRI (usec):      100
PQLen:     4
Ambient Light Source Power: Off
PAR (uMol/m^2/s):630.00
Comment:
Depth(m):   2.5
Temperature(C):  53.5
Battery(V):  15.95

         Time    EX   Fl-Yield 
DATA--------------------------
   0         0     0       0.0 
   1         1   156     220.1 
   2         2   817     241.9 
   3         3   953     248.3 
   4         4   969     270.7 
   5         5   972     275.4 
   6         6   973     270.3 
   7         7   973     286.1 
   8         8   977     274.0 
   9         9   974     283.4 
  10        10   975     289.6 
  11        11   976     292.3 
  12        12   977     297.5 
  13        13   977     302.6 
  14        14   977     310.5 
  15        15   977     310.8 
  16        16   978     306.7 
  17        17   980     321.8 
  18        18   977     326.2 
  19        19   978     311.9 
  20        20   979     328.6 
  21        21   980     326.2 
  22        22   979     357.8 
  23        23   979     356.5 
  24        24   979     343.2 
  25        25   980     341.8 
  26        26   980     359.5 
  27        27   978     392.6 
  28        28   980     369.0 
  29        29   980     373.8 
  30        30   980     378.6 
  31        31   980     390.5 
  32        32   980     383.0 
  33        33   980     377.9 
  34        34   981     374.4 
  35        35   981     394.8 
  36        36   980     376.5 
  37        37   981     406.0 
  38        38   980     386.1 
  39        39   981     402.0 
  40        40   980     401.7 
  41        41   981     393.5 
  42        42   980     392.2 
  43        43   982     393.4 
  44        44   981     411.1 
  45        45   980     422.1 
  46        46   981     406.0 
  47        47   982     389.3 
  48        48   982     408.4 
  49        49   981     424.4 
  50        50   981     416.6 
  51        51   980     418.4 
  52        52   983     409.6 
  53        53   981     422.7 
  54        54   981     415.6 
  55        55   981     436.3 
  56        56   982     403.9 
  57        57   982     426.7 
  58        58   981     450.6 
  59        59   981     423.0 
  60        60   980     426.2 
  61        61   983     437.1 
  62        62   981     452.3 
  63        63   981     446.1 
  64        64   981     437.6 
  65        65   982     434.8 
  66        66   982     457.2 
  67        67   981     457.0 
  68        68   981     451.9 
  69        69   981     446.8 
  70        70   983     458.8 
  71        71   980     465.0 
  72        72   981     473.3 
  73        73   981     452.6 
  74        74   982     453.2 
  75        75   981     448.5 
  76        76   980     472.4 
  77        77   980     452.4 
  78        78   982     457.2 
  79        79   982     463.7 
  80        80   980     480.3 
  81        81   981     452.9 
  82        82   980     440.5 
  83        83   982     432.8 
  84        84   980     468.0 
  85        85   980     470.1 
  86        86   980     456.5 
  87        87   982     454.5 
  88        88   981     466.5 
  89        89   980     467.7 
  90        90   981     457.4 
  91        91   981     447.5 
  92        92   982     438.9 
  93        93   980     457.8 
  94        94   980     451.0 
  95        95   980     440.5 
  96        96   982     444.0 
  97        97   981     441.7 
  98        98   980     471.1 
  99        99   980     436.1 
 100       100   980     451.0 
 101       101   981     437.3 
 102       102   980     454.8 
 103       103   980     461.6 
 104       104   980     442.9 
 105       105   982     460.3 
 106       106   980     450.0 
 107       107   980     447.6 
 108       108   980     446.9 
 109       109   981     450.9 
 110       110   980     449.0 
 111       111   980     446.3 
 112       112   980     464.3 
 113       113   980     431.0 
 114       114   981     449.5 
 115       115   980     449.7 
 116       116   980     448.3 
 117       117   980     426.5 
 118       118   980     441.5 
 119       119   980     432.7 
 120       120   979     446.4 
 121       121   980     445.9 
 122       122   980     436.7 
 123       123   981     426.4 
 124       124   979     444.3 
 125       125   980     439.5 
 126       126   980     449.0 
 127       127   981     435.9 
 128       128   980     442.2 
 129       129   979     458.0 
 130       130   979     447.1 
 131       131   980     447.3 
 132       132   980     428.6 
 133       133   979     437.5 
 134       134   979     448.8 
 135       135   979     436.8 
 136       136   980     433.0 
 137       137   979     433.4 
 138       138   979     437.9 
 139       139   979     447.4 
 140       140   980     420.7 
 141       141   980     406.8 
 142       142   978     435.2 
 143       143   980     432.3 
 144       144   979     429.0 
 145       145   980     407.5 
 146       146   978     424.3 
 147       147   979     434.8 
 148       148   979     437.9 
 149       149   979     428.7 
 150       150   979     428.7 
 151       210  1000     470.7 
 152       270   997     417.3 
 153       330  1000     382.3 
 154       390   996     372.2 
 155       450   996     414.3 
 156       510   996     343.0 
 157       570   994     408.5 
 158       630   998     327.3 
 159       810   983     399.8 
 160       990   980     304.8 
 161      1170   985     287.0 
 162      1350   986     328.3 
 163      1530   981     297.0 
 164      2070   980     320.7 
 165      2691   973     289.1 
 166      3405   978     238.2 
 167      4226   978     276.8 
 168      5170   976     301.9 
 169      6256   975     239.3 
 170      7505   974     299.5 
 171      8941   977     326.2 
 172     10592   975     302.6 
 173     12491   973     254.5 
 174     14675   979     292.8 
 175     17187   975     307.7 
 176     20076   974     282.3 
 177     23398   977     289.7 
 178     27218   979     295.5 
 179     31611   980     237.1 
 180     36663   980     309.9 
 181     42473   977     331.6 
 182     49155   978     254.6 
 183     56839   980     223.5 
 184     65676   977     271.2 
 185     75839   981     271.2 
   1         1   156     540.6 
   2         2   817     575.7 
   3         3   953     575.4 
   4         4   969     576.9 
   5         5   972     587.4 
   6         6   973     558.8 
   7         7   973     592.0 
   8         8   977     588.9 
   9         9   974     605.4 
  10        10   975     599.0 
  11        11   976     602.5 
  12        12   977     628.8 
  13        13   977     621.6 
  14        14   977     620.6 
  15        15   977     632.5 
  16        16   978     611.5 
  17        17   980     601.4 
  18        18   977     618.9 
  19        19   978     627.8 
  20        20   979     610.5 
  21        21   980     595.6 
  22        22   979     606.1 
  23        23   979     593.1 
  24        24   979     598.6 
  25        25   980     604.8 
  26        26   980     602.7 
  27        27   978     607.0 
  28        28   980     593.5 
  29        29   980     584.7 
  30        30   980     590.1 
  31        31   980     592.9 
  32        32   980     609.5 
  33        33   980     609.2 
  34        34   981     608.9 
  35        35   981     609.2 
  36        36   980     603.4 
  37        37   981     608.6 
  38        38   980     613.3 
  39        39   981     613.0 
  40        40   980     612.2 
  41        41   981     594.3 
  42        42   980     609.5 
  43        43   982     613.4 
  44        44   981     603.5 
  45        45   980     604.1 
  46        46   981     627.3 
  47        47   982     622.2 
  48        48   982     614.7 
  49        49   981     630.3 
  50        50   981     630.6 
  51        51   980     626.5 
  52        52   983     623.6 
  53        53   981     625.6 
  54        54   981     640.8 
  55        55   981     646.6 
  56        56   982     626.3 
  57        57   982     632.0 
  58        58   981     626.6 
  59        59   981     635.7 
  60        60   980     634.4 
  61        61   983     631.4 
  62        62   981     626.9 
  63        63   981     634.4 
  64        64   981     633.0 
  65        65   982     637.8 
  66        66   982     630.3 
  67        67   981     634.4 
  68        68   981     627.6 
  69        69   981     647.6 
  70        70   983     618.5 
  71        71   980     633.0 
  72        72   981     636.4 
  73        73   981     637.4 
  74        74   982     630.7 
  75        75   981     633.0 
  76        76   980     647.3 
  77        77   980     642.5 
  78        78   982     632.0 
  79        79   982     637.1 
  80        80   980     631.0 
  81        81   981     647.6 
  82        82   980     644.6 
  83        83   982     641.5 
  84        84   980     639.5 
  85        85   980     642.9 
  86        86   980     638.4 
  87        87   982     634.4 
  88        88   981     634.0 
  89        89   980     646.3 
  90        90   981     632.0 
  91        91   981     637.4 
  92        92   982     648.0 
  93        93   980     645.6 
  94        94   980     633.0 
  95        95   980     631.3 
  96        96   982     638.2 
  97        97   981     643.9 
  98        98   980     625.9 
  99        99   980     641.8 
 100       100   980     644.6 
 101       101   981     635.1 
 102       102   980     630.6 
 103       103   980     646.6 
 104       104   980     631.6 
 105       105   982     638.8 
 106       106   980     629.6 
 107       107   980     632.3 
 108       108   980     629.6 
 109       109   981     647.3 
 110       110   980     632.0 
 111       111   980     636.1 
 112       112   980     628.9 
 113       113   980     643.9 
 114       114   981     635.7 
 115       115   980     624.1 
 116       116   980     624.5 
 117       117   980     631.6 
 118       118   980     638.8 
 119       119   980     618.7 
 120       120   979     638.7 
 121       121   980     621.1 
 122       122   980     617.3 
 123       123   981     626.9 
 124       124   979     637.7 
 125       125   980     634.0 
 126       126   980     617.7 
 127       127   981     634.0 
 128       128   980     629.9 
 129       129   979     624.4 
 130       130   979     640.4 
 131       131   980     623.1 
 132       132   980     629.3 
 133       133   979     619.7 
 134       134   979     626.8 
 135       135   979     640.8 
 136       136   980     619.0 
 137       137   979     632.3 
 138       138   979     622.4 
 139       139   979     617.6 
 140       140   980     631.3 
 141       141   980     640.8 
 142       142   978     633.3 
 143       143   980     614.3 
 144       144   979     609.5 
 145       145   980     621.4 
 146       146   978     628.8 
 147       147   979     612.9 
 148       148   979     630.6 
 149       149   979     634.7 
 150       150   979     634.7 
 151       210  1000     657.0 
 152       270   997     616.5 
 153       330  1000     660.0 
 154       390   996     617.5 
 155       450   996     638.2 
 156       510   996     605.8 
 157       570   994     595.6 
 158       630   998     622.9 
 159       810   983     606.0 
 160       990   980     603.1 
 161      1170   985     615.9 
 162      1350   986     583.5 
 163      1530   981     606.2 
 164      2070   980     617.7 
 165      2691   973     589.6 
 166      3405   978     571.9 
 167      4226   978     564.8 
 168      5170   976     568.6 
 169      6256   975     527.2 
 170      7505   974     540.4 
 171      8941   977     550.0 
 172     10592   975     546.3 
 173     12491   973     522.8 
 174     14675   979     491.7 
 175     17187   975     493.7 
 176     20076   974     521.6 
 177     23398   977     457.5 
 178     27218   979     443.6 
 179     31611   980     414.3 
 180     36663   980     418.4 
 181     42473   977     393.4 
 182     49155   978     402.9 
 183     56839   980     391.5 
 184     65676   977     393.4 
 185     75839   981     393.4 
