PC/104 FIRe Fluorometer 2.0.0
 4/ 8/2025     37142
LED Color:           blue
Gain:               2000
Sample Delay (msec):    10
Number Samples:   3
STF (usec):      150
STRP (#samples):       35
STRI (usec):       60
MTF (ms):        0
MTF (#samples):     0
MTRP (#samples):        0
MTRI (usec):      100
PQLen:     4
Ambient Light Source Power: Off
PAR (uMol/m^2/s):162.95
Comment:
Depth(m):  -0.6
Temperature(C):  72.7
Battery(V):  14.38

         Time    EX   Fl-Yield 
DATA--------------------------
   0         0     0       0.0 
   1         1   156     363.2 
   2         2   817     340.3 
   3         3   953     395.2 
   4         4   969     328.5 
   5         5   972     329.9 
   6         6   973     389.5 
   7         7   973     401.5 
   8         8   977     385.9 
   9         9   974     336.1 
  10        10   975     423.6 
  11        11   976     383.9 
  12        12   977     403.3 
  13        13   977     391.3 
  14        14   977     398.8 
  15        15   977     403.6 
  16        16   978     425.0 
  17        17   980     406.8 
  18        18   977     374.6 
  19        19   978     441.0 
  20        20   979     433.4 
  21        21   980     390.5 
  22        22   979     449.4 
  23        23   979     459.3 
  24        24   979     443.3 
  25        25   980     436.7 
  26        26   980     425.2 
  27        27   978     474.4 
  28        28   980     472.1 
  29        29   980     498.3 
  30        30   980     450.0 
  31        31   980     518.7 
  32        32   980     450.3 
  33        33   980     489.8 
  34        34   981     474.0 
  35        35   981     465.5 
  36        36   980     493.2 
  37        37   981     541.6 
  38        38   980     495.9 
  39        39   981     445.1 
  40        40   980     491.5 
  41        41   981     519.5 
  42        42   980     442.2 
  43        43   982     529.5 
  44        44   981     476.0 
  45        45   980     509.5 
  46        46   981     486.6 
  47        47   982     474.9 
  48        48   982     455.2 
  49        49   981     517.5 
  50        50   981     491.3 
  51        51   980     459.5 
  52        52   983     456.1 
  53        53   981     484.9 
  54        54   981     500.2 
  55        55   981     507.6 
  56        56   982     443.3 
  57        57   982     448.1 
  58        58   981     467.9 
  59        59   981     515.1 
  60        60   980     513.9 
  61        61   983     484.9 
  62        62   981     439.0 
  63        63   981     489.6 
  64        64   981     494.7 
  65        65   982     444.7 
  66        66   982     469.5 
  67        67   981     497.8 
  68        68   981     518.9 
  69        69   981     423.0 
  70        70   983     478.5 
  71        71   980     485.4 
  72        72   981     506.6 
  73        73   981     469.9 
  74        74   982     456.2 
  75        75   981     440.4 
  76        76   980     431.6 
  77        77   980     474.5 
  78        78   982     431.4 
  79        79   982     398.2 
  80        80   980     465.3 
  81        81   981     469.2 
  82        82   980     444.9 
  83        83   982     446.4 
  84        84   980     472.8 
  85        85   980     434.7 
  86        86   980     498.0 
  87        87   982     402.9 
  88        88   981     472.3 
  89        89   980     489.1 
  90        90   981     493.0 
  91        91   981     448.5 
  92        92   982     420.2 
  93        93   980     432.0 
  94        94   980     520.4 
  95        95   980     446.6 
  96        96   982     438.9 
  97        97   981     490.7 
  98        98   980     457.1 
  99        99   980     456.5 
 100       100   980     465.0 
 101       101   981     482.8 
 102       102   980     437.4 
 103       103   980     447.6 
 104       104   980     438.4 
 105       105   982     443.3 
 106       106   980     459.5 
 107       107   980     464.3 
 108       108   980     476.2 
 109       109   981     444.4 
 110       110   980     458.2 
 111       111   980     491.2 
 112       112   980     452.7 
 113       113   980     490.5 
 114       114   981     437.6 
 115       115   980     444.9 
 116       116   980     462.2 
 117       117   980     470.7 
 118       118   980     410.2 
 119       119   980     449.3 
 120       120   979     480.1 
 121       121   980     479.9 
 122       122   980     446.9 
 123       123   981     497.8 
 124       124   979     472.6 
 125       125   980     465.3 
 126       126   980     461.9 
 127       127   981     461.4 
 128       128   980     477.9 
 129       129   979     493.0 
 130       130   979     522.3 
 131       131   980     487.8 
 132       132   980     509.5 
 133       133   979     521.6 
 134       134   979     564.9 
 135       135   979     495.4 
 136       136   980     501.4 
 137       137   979     512.4 
 138       138   979     494.4 
 139       139   979     462.4 
 140       140   980     505.4 
 141       141   980     506.1 
 142       142   978     518.4 
 143       143   980     487.4 
 144       144   979     497.1 
 145       145   980     499.0 
 146       146   978     503.7 
 147       147   979     516.2 
 148       148   979     474.0 
 149       149   979     495.7 
 150       150   979     495.7 
 151       210  1000     475.0 
 152       270   997     489.8 
 153       330  1000     371.7 
 154       390   996     475.9 
 155       450   996     466.2 
 156       510   996     459.2 
 157       570   994     410.1 
 158       630   998     533.1 
 159       810   983     388.3 
 160       990   980     412.9 
 161      1170   985     312.7 
 162      1350   986     368.8 
 163      1530   981     518.9 
 164      2070   980     496.3 
 165      2691   973     493.3 
 166      3405   978     366.1 
 167      4226   978     450.2 
 168      5170   976     452.5 
 169      6256   975     430.8 
 170      7505   974     390.5 
 171      8941   977     365.1 
 172     10592   975     292.0 
 173     12491   973     316.5 
 174     14675   979     361.3 
 175     17187   975     394.5 
 176     20076   974     309.0 
 177     23398   977     309.8 
 178     27218   979     394.6 
 179     31611   980     298.0 
 180     36663   980     270.1 
 181     42473   977     413.5 
 182     49155   978     386.2 
 183     56839   980     328.9 
 184     65676   977     408.1 
 185     75839   981     408.1 
   1         1   156     579.1 
   2         2   817     491.6 
   3         3   953     440.0 
   4         4   969     484.3 
   5         5   972     462.3 
   6         6   973     458.0 
   7         7   973     497.1 
   8         8   977     515.9 
   9         9   974     527.4 
  10        10   975     505.6 
  11        11   976     450.5 
  12        12   977     497.4 
  13        13   977     504.6 
  14        14   977     507.3 
  15        15   977     534.3 
  16        16   978     528.3 
  17        17   980     493.2 
  18        18   977     557.8 
  19        19   978     498.0 
  20        20   979     566.6 
  21        21   980     518.0 
  22        22   979     532.5 
  23        23   979     576.4 
  24        24   979     506.0 
  25        25   980     497.3 
  26        26   980     505.8 
  27        27   978     498.6 
  28        28   980     521.4 
  29        29   980     519.7 
  30        30   980     511.9 
  31        31   980     545.9 
  32        32   980     495.9 
  33        33   980     505.8 
  34        34   981     554.2 
  35        35   981     480.8 
  36        36   980     505.4 
  37        37   981     521.2 
  38        38   980     513.6 
  39        39   981     565.4 
  40        40   980     522.1 
  41        41   981     551.8 
  42        42   980     536.4 
  43        43   982     566.5 
  44        44   981     553.2 
  45        45   980     527.2 
  46        46   981     487.3 
  47        47   982     565.2 
  48        48   982     550.9 
  49        49   981     548.4 
  50        50   981     504.2 
  51        51   980     563.3 
  52        52   983     540.2 
  53        53   981     585.1 
  54        54   981     545.0 
  55        55   981     549.8 
  56        56   982     543.1 
  57        57   982     576.0 
  58        58   981     552.8 
  59        59   981     569.1 
  60        60   980     562.9 
  61        61   983     595.5 
  62        62   981     560.3 
  63        63   981     539.2 
  64        64   981     575.3 
  65        65   982     585.2 
  66        66   982     548.2 
  67        67   981     547.1 
  68        68   981     556.6 
  69        69   981     540.9 
  70        70   983     542.2 
  71        71   980     579.3 
  72        72   981     557.3 
  73        73   981     549.8 
  74        74   982     536.0 
  75        75   981     530.4 
  76        76   980     517.7 
  77        77   980     503.4 
  78        78   982     568.2 
  79        79   982     532.6 
  80        80   980     548.0 
  81        81   981     501.2 
  82        82   980     511.2 
  83        83   982     548.2 
  84        84   980     512.6 
  85        85   980     549.7 
  86        86   980     524.8 
  87        87   982     525.1 
  88        88   981     512.7 
  89        89   980     532.0 
  90        90   981     490.7 
  91        91   981     596.3 
  92        92   982     555.7 
  93        93   980     502.7 
  94        94   980     529.3 
  95        95   980     540.8 
  96        96   982     506.1 
  97        97   981     550.1 
  98        98   980     503.7 
  99        99   980     537.1 
 100       100   980     527.9 
 101       101   981     532.1 
 102       102   980     561.9 
 103       103   980     492.2 
 104       104   980     529.6 
 105       105   982     547.2 
 106       106   980     563.3 
 107       107   980     544.9 
 108       108   980     506.5 
 109       109   981     503.9 
 110       110   980     510.5 
 111       111   980     529.6 
 112       112   980     505.4 
 113       113   980     550.0 
 114       114   981     515.8 
 115       115   980     510.9 
 116       116   980     498.0 
 117       117   980     565.3 
 118       118   980     566.0 
 119       119   980     538.1 
 120       120   979     510.0 
 121       121   980     550.3 
 122       122   980     554.8 
 123       123   981     577.3 
 124       124   979     542.0 
 125       125   980     564.6 
 126       126   980     548.3 
 127       127   981     567.8 
 128       128   980     563.6 
 129       129   979     536.6 
 130       130   979     562.1 
 131       131   980     544.9 
 132       132   980     566.3 
 133       133   979     525.7 
 134       134   979     563.5 
 135       135   979     540.7 
 136       136   980     582.3 
 137       137   979     539.7 
 138       138   979     530.1 
 139       139   979     527.1 
 140       140   980     515.0 
 141       141   980     526.2 
 142       142   978     561.3 
 143       143   980     551.4 
 144       144   979     543.1 
 145       145   980     565.0 
 146       146   978     534.1 
 147       147   979     570.7 
 148       148   979     577.5 
 149       149   979     515.2 
 150       150   979     515.2 
 151       210  1000     518.0 
 152       270   997     619.2 
 153       330  1000     504.0 
 154       390   996     510.7 
 155       450   996     478.9 
 156       510   996     629.9 
 157       570   994     498.3 
 158       630   998     551.1 
 159       810   983     522.5 
 160       990   980     479.6 
 161      1170   985     540.1 
 162      1350   986     504.4 
 163      1530   981     597.7 
 164      2070   980     480.6 
 165      2691   973     500.5 
 166      3405   978     455.4 
 167      4226   978     515.0 
 168      5170   976     512.0 
 169      6256   975     551.5 
 170      7505   974     488.4 
 171      8941   977     452.7 
 172     10592   975     459.8 
 173     12491   973     462.5 
 174     14675   979     388.2 
 175     17187   975     368.5 
 176     20076   974     467.5 
 177     23398   977     506.7 
 178     27218   979     397.0 
 179     31611   980     448.0 
 180     36663   980     516.7 
 181     42473   977     423.1 
 182     49155   978     413.1 
 183     56839   980     369.0 
 184     65676   977     381.4 
 185     75839   981     381.4 
