PC/104 FIRe Fluorometer 2.0.0
 4/ 8/2025     37223
LED Color:           blue
Gain:               1800
Sample Delay (msec):    10
Number Samples:   3
STF (usec):      150
STRP (#samples):       35
STRI (usec):       60
MTF (ms):        0
MTF (#samples):     0
MTRP (#samples):        0
MTRI (usec):      100
PQLen:     4
Ambient Light Source Power: Off
PAR (uMol/m^2/s):463.33
Comment:
Depth(m):  -0.7
Temperature(C):  72.7
Battery(V):  14.37

         Time    EX   Fl-Yield 
DATA--------------------------
   0         0     0       0.0 
   1         1   156     185.9 
   2         2   817     290.5 
   3         3   953     326.0 
   4         4   969     322.3 
   5         5   972     326.5 
   6         6   973     351.1 
   7         7   973     354.2 
   8         8   977     337.8 
   9         9   974     364.8 
  10        10   975     354.9 
  11        11   976     367.5 
  12        12   977     406.0 
  13        13   977     385.5 
  14        14   977     353.8 
  15        15   977     411.1 
  16        16   978     393.3 
  17        17   980     405.1 
  18        18   977     402.3 
  19        19   978     396.0 
  20        20   979     417.1 
  21        21   980     416.3 
  22        22   979     382.4 
  23        23   979     418.1 
  24        24   979     442.6 
  25        25   980     416.7 
  26        26   980     415.3 
  27        27   978     416.8 
  28        28   980     404.8 
  29        29   980     476.2 
  30        30   980     421.8 
  31        31   980     418.7 
  32        32   980     411.9 
  33        33   980     449.3 
  34        34   981     432.6 
  35        35   981     449.2 
  36        36   980     431.3 
  37        37   981     439.3 
  38        38   980     474.1 
  39        39   981     452.6 
  40        40   980     432.0 
  41        41   981     437.3 
  42        42   980     436.7 
  43        43   982     461.6 
  44        44   981     452.6 
  45        45   980     427.2 
  46        46   981     468.9 
  47        47   982     461.6 
  48        48   982     452.5 
  49        49   981     427.8 
  50        50   981     414.2 
  51        51   980     455.4 
  52        52   983     438.5 
  53        53   981     458.4 
  54        54   981     448.2 
  55        55   981     476.0 
  56        56   982     455.5 
  57        57   982     434.5 
  58        58   981     455.0 
  59        59   981     464.8 
  60        60   980     470.4 
  61        61   983     423.2 
  62        62   981     460.1 
  63        63   981     447.5 
  64        64   981     484.2 
  65        65   982     437.5 
  66        66   982     452.1 
  67        67   981     411.5 
  68        68   981     458.0 
  69        69   981     445.1 
  70        70   983     442.9 
  71        71   980     426.5 
  72        72   981     428.8 
  73        73   981     457.4 
  74        74   982     439.2 
  75        75   981     443.4 
  76        76   980     446.9 
  77        77   980     440.1 
  78        78   982     475.9 
  79        79   982     455.5 
  80        80   980     405.8 
  81        81   981     488.6 
  82        82   980     474.5 
  83        83   982     486.4 
  84        84   980     452.0 
  85        85   980     450.7 
  86        86   980     448.6 
  87        87   982     464.7 
  88        88   981     445.8 
  89        89   980     444.2 
  90        90   981     443.8 
  91        91   981     463.1 
  92        92   982     478.3 
  93        93   980     454.4 
  94        94   980     468.4 
  95        95   980     473.5 
  96        96   982     457.2 
  97        97   981     445.5 
  98        98   980     456.8 
  99        99   980     466.3 
 100       100   980     428.6 
 101       101   981     462.5 
 102       102   980     426.2 
 103       103   980     454.4 
 104       104   980     461.2 
 105       105   982     471.5 
 106       106   980     457.1 
 107       107   980     444.2 
 108       108   980     450.3 
 109       109   981     441.7 
 110       110   980     449.7 
 111       111   980     421.1 
 112       112   980     476.9 
 113       113   980     462.6 
 114       114   981     451.9 
 115       115   980     435.4 
 116       116   980     476.9 
 117       117   980     464.3 
 118       118   980     485.0 
 119       119   980     453.7 
 120       120   979     458.3 
 121       121   980     473.8 
 122       122   980     477.2 
 123       123   981     455.3 
 124       124   979     482.8 
 125       125   980     464.6 
 126       126   980     463.3 
 127       127   981     463.8 
 128       128   980     456.8 
 129       129   979     459.7 
 130       130   979     488.6 
 131       131   980     473.1 
 132       132   980     474.1 
 133       133   979     432.4 
 134       134   979     462.7 
 135       135   979     467.8 
 136       136   980     475.5 
 137       137   979     413.3 
 138       138   979     484.2 
 139       139   979     479.7 
 140       140   980     468.7 
 141       141   980     460.9 
 142       142   978     459.8 
 143       143   980     460.2 
 144       144   979     449.4 
 145       145   980     458.8 
 146       146   978     472.1 
 147       147   979     473.3 
 148       148   979     458.0 
 149       149   979     463.4 
 150       150   979     463.4 
 151       210  1000     507.3 
 152       270   997     441.7 
 153       330  1000     492.7 
 154       390   996     492.0 
 155       450   996     480.3 
 156       510   996     450.8 
 157       570   994     437.3 
 158       630   998     429.5 
 159       810   983     467.6 
 160       990   980     417.7 
 161      1170   985     363.8 
 162      1350   986     411.8 
 163      1530   981     424.7 
 164      2070   980     420.7 
 165      2691   973     413.2 
 166      3405   978     353.4 
 167      4226   978     374.9 
 168      5170   976     384.6 
 169      6256   975     360.3 
 170      7505   974     398.0 
 171      8941   977     365.7 
 172     10592   975     382.6 
 173     12491   973     389.2 
 174     14675   979     365.7 
 175     17187   975     364.1 
 176     20076   974     300.5 
 177     23398   977     378.4 
 178     27218   979     373.9 
 179     31611   980     307.1 
 180     36663   980     333.0 
 181     42473   977     399.5 
 182     49155   978     402.9 
 183     56839   980     339.8 
 184     65676   977     324.5 
 185     75839   981     324.5 
   1         1   156     168.8 
   2         2   817     417.8 
   3         3   953     428.8 
   4         4   969     475.4 
   5         5   972     453.0 
   6         6   973     429.6 
   7         7   973     444.7 
   8         8   977     445.2 
   9         9   974     472.3 
  10        10   975     443.4 
  11        11   976     468.6 
  12        12   977     510.4 
  13        13   977     493.0 
  14        14   977     488.9 
  15        15   977     503.6 
  16        16   978     515.3 
  17        17   980     499.0 
  18        18   977     492.0 
  19        19   978     457.7 
  20        20   979     492.3 
  21        21   980     501.7 
  22        22   979     459.3 
  23        23   979     462.0 
  24        24   979     428.7 
  25        25   980     490.8 
  26        26   980     479.9 
  27        27   978     460.5 
  28        28   980     456.1 
  29        29   980     489.5 
  30        30   980     474.8 
  31        31   980     486.1 
  32        32   980     476.9 
  33        33   980     463.6 
  34        34   981     498.5 
  35        35   981     515.1 
  36        36   980     457.8 
  37        37   981     477.1 
  38        38   980     535.7 
  39        39   981     464.8 
  40        40   980     481.6 
  41        41   981     482.8 
  42        42   980     473.8 
  43        43   982     478.3 
  44        44   981     475.0 
  45        45   980     488.4 
  46        46   981     498.1 
  47        47   982     528.5 
  48        48   982     500.3 
  49        49   981     511.4 
  50        50   981     466.9 
  51        51   980     520.1 
  52        52   983     510.7 
  53        53   981     501.5 
  54        54   981     489.6 
  55        55   981     536.9 
  56        56   982     524.4 
  57        57   982     484.4 
  58        58   981     498.1 
  59        59   981     509.3 
  60        60   980     521.1 
  61        61   983     512.4 
  62        62   981     507.6 
  63        63   981     517.5 
  64        64   981     531.1 
  65        65   982     501.4 
  66        66   982     492.2 
  67        67   981     479.1 
  68        68   981     525.7 
  69        69   981     531.4 
  70        70   983     522.2 
  71        71   980     525.5 
  72        72   981     490.0 
  73        73   981     510.0 
  74        74   982     529.9 
  75        75   981     526.7 
  76        76   980     519.7 
  77        77   980     531.3 
  78        78   982     517.0 
  79        79   982     513.6 
  80        80   980     467.3 
  81        81   981     521.9 
  82        82   980     545.2 
  83        83   982     530.5 
  84        84   980     524.5 
  85        85   980     511.6 
  86        86   980     549.0 
  87        87   982     522.1 
  88        88   981     542.0 
  89        89   980     498.3 
  90        90   981     510.7 
  91        91   981     518.9 
  92        92   982     501.0 
  93        93   980     498.0 
  94        94   980     518.4 
  95        95   980     521.8 
  96        96   982     516.3 
  97        97   981     491.7 
  98        98   980     505.8 
  99        99   980     509.9 
 100       100   980     542.5 
 101       101   981     489.0 
 102       102   980     474.1 
 103       103   980     525.9 
 104       104   980     510.9 
 105       105   982     499.0 
 106       106   980     503.7 
 107       107   980     471.1 
 108       108   980     528.2 
 109       109   981     509.7 
 110       110   980     500.3 
 111       111   980     493.2 
 112       112   980     510.9 
 113       113   980     490.5 
 114       114   981     495.8 
 115       115   980     433.0 
 116       116   980     503.4 
 117       117   980     474.5 
 118       118   980     487.1 
 119       119   980     496.6 
 120       120   979     476.0 
 121       121   980     493.9 
 122       122   980     478.2 
 123       123   981     484.9 
 124       124   979     498.8 
 125       125   980     479.3 
 126       126   980     509.9 
 127       127   981     475.7 
 128       128   980     506.1 
 129       129   979     472.6 
 130       130   979     504.3 
 131       131   980     476.2 
 132       132   980     474.8 
 133       133   979     483.5 
 134       134   979     498.1 
 135       135   979     502.6 
 136       136   980     483.0 
 137       137   979     457.3 
 138       138   979     475.0 
 139       139   979     490.0 
 140       140   980     480.6 
 141       141   980     479.9 
 142       142   978     441.4 
 143       143   980     504.1 
 144       144   979     499.5 
 145       145   980     481.6 
 146       146   978     471.0 
 147       147   979     467.8 
 148       148   979     509.7 
 149       149   979     481.4 
 150       150   979     481.4 
 151       210  1000     565.3 
 152       270   997     498.8 
 153       330  1000     568.7 
 154       390   996     485.3 
 155       450   996     485.6 
 156       510   996     540.8 
 157       570   994     518.8 
 158       630   998     435.9 
 159       810   983     544.6 
 160       990   980     476.2 
 161      1170   985     613.9 
 162      1350   986     494.6 
 163      1530   981     521.6 
 164      2070   980     499.0 
 165      2691   973     501.5 
 166      3405   978     511.2 
 167      4226   978     466.9 
 168      5170   976     416.7 
 169      6256   975     421.2 
 170      7505   974     528.4 
 171      8941   977     437.4 
 172     10592   975     460.5 
 173     12491   973     507.4 
 174     14675   979     476.7 
 175     17187   975     386.7 
 176     20076   974     482.9 
 177     23398   977     430.6 
 178     27218   979     503.9 
 179     31611   980     358.2 
 180     36663   980     323.1 
 181     42473   977     441.1 
 182     49155   978     408.7 
 183     56839   980     439.1 
 184     65676   977     298.5 
 185     75839   981     298.5 
