PC/104 FIRe Fluorometer 2.0.0
 4/ 8/2025     33313
LED Color:           blue
Gain:               1800
Sample Delay (msec):    10
Number Samples:   3
STF (usec):      150
STRP (#samples):       35
STRI (usec):       60
MTF (ms):        0
MTF (#samples):     0
MTRP (#samples):        0
MTRI (usec):      100
PQLen:     4
Ambient Light Source Power: Off
PAR (uMol/m^2/s):350.00
Comment:
Depth(m):   2.1
Temperature(C):  66.6
Battery(V):  15.14

         Time    EX   Fl-Yield 
DATA--------------------------
   0         0     0       0.0 
   1         1   156       0.0 
   2         2   817     111.4 
   3         3   953     139.2 
   4         4   969     154.8 
   5         5   972     165.6 
   6         6   973     161.7 
   7         7   973     146.6 
   8         8   977     129.0 
   9         9   974     153.7 
  10        10   975     129.9 
  11        11   976     148.2 
  12        12   977     163.8 
  13        13   977     143.3 
  14        14   977     142.3 
  15        15   977     136.5 
  16        16   978     174.5 
  17        17   980     146.9 
  18        18   977     149.8 
  19        19   978     181.7 
  20        20   979     172.6 
  21        21   980     155.8 
  22        22   979     148.5 
  23        23   979     159.0 
  24        24   979     191.7 
  25        25   980     173.1 
  26        26   980     169.7 
  27        27   978     173.8 
  28        28   980     170.4 
  29        29   980     186.4 
  30        30   980     179.9 
  31        31   980     162.6 
  32        32   980     171.4 
  33        33   980     177.2 
  34        34   981     182.5 
  35        35   981     194.0 
  36        36   980     161.6 
  37        37   981     183.5 
  38        38   980     186.4 
  39        39   981     215.8 
  40        40   980     199.3 
  41        41   981     187.2 
  42        42   980     181.6 
  43        43   982     173.1 
  44        44   981     176.4 
  45        45   980     175.9 
  46        46   981     181.4 
  47        47   982     179.6 
  48        48   982     184.3 
  49        49   981     151.5 
  50        50   981     190.3 
  51        51   980     179.9 
  52        52   983     170.6 
  53        53   981     175.0 
  54        54   981     148.5 
  55        55   981     169.9 
  56        56   982     176.5 
  57        57   982     136.8 
  58        58   981     176.0 
  59        59   981     161.4 
  60        60   980     157.5 
  61        61   983     165.1 
  62        62   981     158.0 
  63        63   981     143.7 
  64        64   981     168.2 
  65        65   982     143.6 
  66        66   982     167.7 
  67        67   981     178.0 
  68        68   981     184.8 
  69        69   981     145.8 
  70        70   983     164.1 
  71        71   980     146.6 
  72        72   981     123.3 
  73        73   981     153.2 
  74        74   982     190.4 
  75        75   981     160.4 
  76        76   980     184.0 
  77        77   980     133.3 
  78        78   982     166.3 
  79        79   982     158.9 
  80        80   980     183.3 
  81        81   981     148.5 
  82        82   980     139.1 
  83        83   982     149.0 
  84        84   980     182.7 
  85        85   980     158.8 
  86        86   980     174.8 
  87        87   982     150.4 
  88        88   981     154.6 
  89        89   980     185.7 
  90        90   981     175.3 
  91        91   981     173.6 
  92        92   982     169.4 
  93        93   980     177.9 
  94        94   980     151.0 
  95        95   980     174.1 
  96        96   982     186.4 
  97        97   981     195.7 
  98        98   980     183.7 
  99        99   980     198.3 
 100       100   980     180.6 
 101       101   981     185.5 
 102       102   980     177.2 
 103       103   980     205.4 
 104       104   980     186.1 
 105       105   982     175.5 
 106       106   980     161.6 
 107       107   980     152.4 
 108       108   980     175.2 
 109       109   981     184.2 
 110       110   980     219.4 
 111       111   980     173.8 
 112       112   980     191.2 
 113       113   980     192.5 
 114       114   981     214.7 
 115       115   980     211.9 
 116       116   980     205.8 
 117       117   980     216.7 
 118       118   980     157.1 
 119       119   980     193.5 
 120       120   979     199.5 
 121       121   980     175.5 
 122       122   980     208.5 
 123       123   981     180.1 
 124       124   979     186.2 
 125       125   980     216.3 
 126       126   980     223.8 
 127       127   981     218.5 
 128       128   980     173.1 
 129       129   979     196.5 
 130       130   979     202.2 
 131       131   980     194.2 
 132       132   980     196.6 
 133       133   979     163.1 
 134       134   979     188.6 
 135       135   979     186.9 
 136       136   980     173.5 
 137       137   979     183.2 
 138       138   979     205.0 
 139       139   979     187.9 
 140       140   980     204.1 
 141       141   980     177.2 
 142       142   978     193.3 
 143       143   980     186.1 
 144       144   979     153.2 
 145       145   980     198.0 
 146       146   978     197.7 
 147       147   979     219.6 
 148       148   979     205.0 
 149       149   979     201.2 
 150       150   979     201.2 
 151       210  1000     188.7 
 152       270   997     201.6 
 153       330  1000     234.3 
 154       390   996     171.0 
 155       450   996     215.9 
 156       510   996     173.7 
 157       570   994     186.8 
 158       630   998     156.0 
 159       810   983     186.8 
 160       990   980     232.0 
 161      1170   985     175.6 
 162      1350   986     242.4 
 163      1530   981     151.9 
 164      2070   980     141.2 
 165      2691   973     187.4 
 166      3405   978     205.2 
 167      4226   978     147.9 
 168      5170   976     182.7 
 169      6256   975     125.1 
 170      7505   974     166.0 
 171      8941   977     217.3 
 172     10592   975     223.6 
 173     12491   973     232.3 
 174     14675   979     150.2 
 175     17187   975     212.0 
 176     20076   974     215.6 
 177     23398   977     186.3 
 178     27218   979     140.3 
 179     31611   980     155.1 
 180     36663   980     192.2 
 181     42473   977     160.0 
 182     49155   978     165.3 
 183     56839   980     224.1 
 184     65676   977     260.7 
 185     75839   981     260.7 
   1         1   156     -47.0 
   2         2   817      97.1 
   3         3   953     113.3 
   4         4   969     129.3 
   5         5   972     104.3 
   6         6   973     105.5 
   7         7   973      81.2 
   8         8   977     147.4 
   9         9   974     109.5 
  10        10   975     124.1 
  11        11   976     108.6 
  12        12   977     117.7 
  13        13   977     128.6 
  14        14   977     141.9 
  15        15   977     153.2 
  16        16   978     130.9 
  17        17   980     161.6 
  18        18   977     114.0 
  19        19   978     135.0 
  20        20   979     118.5 
  21        21   980     132.7 
  22        22   979     113.0 
  23        23   979      93.6 
  24        24   979     111.0 
  25        25   980      86.1 
  26        26   980     127.9 
  27        27   978     139.1 
  28        28   980     109.2 
  29        29   980      96.9 
  30        30   980     107.8 
  31        31   980     133.0 
  32        32   980     140.8 
  33        33   980     106.1 
  34        34   981      74.8 
  35        35   981     120.6 
  36        36   980      72.1 
  37        37   981      97.5 
  38        38   980      99.7 
  39        39   981     113.8 
  40        40   980     114.3 
  41        41   981      80.5 
  42        42   980     115.3 
  43        43   982      88.9 
  44        44   981     122.7 
  45        45   980     103.7 
  46        46   981      85.6 
  47        47   982      92.0 
  48        48   982     120.8 
  49        49   981     108.7 
  50        50   981      88.7 
  51        51   980      99.3 
  52        52   983      76.0 
  53        53   981      77.8 
  54        54   981      73.4 
  55        55   981     119.3 
  56        56   982     125.6 
  57        57   982     118.8 
  58        58   981     114.2 
  59        59   981      91.1 
  60        60   980     131.3 
  61        61   983     103.1 
  62        62   981     116.2 
  63        63   981     123.7 
  64        64   981      90.0 
  65        65   982      96.4 
  66        66   982     137.8 
  67        67   981     119.3 
  68        68   981     121.3 
  69        69   981     111.8 
  70        70   983      99.7 
  71        71   980     142.5 
  72        72   981     112.8 
  73        73   981      94.5 
  74        74   982      98.4 
  75        75   981     123.7 
  76        76   980     103.4 
  77        77   980     125.9 
  78        78   982     117.8 
  79        79   982     147.0 
  80        80   980     128.6 
  81        81   981     106.7 
  82        82   980     104.8 
  83        83   982     126.6 
  84        84   980     130.3 
  85        85   980     127.9 
  86        86   980     106.5 
  87        87   982     115.4 
  88        88   981     148.5 
  89        89   980     109.5 
  90        90   981     129.8 
  91        91   981     121.0 
  92        92   982     131.0 
  93        93   980     139.1 
  94        94   980     121.4 
  95        95   980     122.4 
  96        96   982     109.3 
  97        97   981     148.5 
  98        98   980     113.6 
  99        99   980     121.4 
 100       100   980     115.0 
 101       101   981     159.4 
 102       102   980     130.3 
 103       103   980     118.4 
 104       104   980      94.2 
 105       105   982     108.6 
 106       106   980     123.8 
 107       107   980     152.7 
 108       108   980     132.3 
 109       109   981     116.5 
 110       110   980     140.1 
 111       111   980     153.1 
 112       112   980     138.1 
 113       113   980     112.2 
 114       114   981     161.1 
 115       115   980     141.2 
 116       116   980     128.9 
 117       117   980     137.1 
 118       118   980     102.7 
 119       119   980     166.0 
 120       120   979     132.8 
 121       121   980     158.8 
 122       122   980     102.7 
 123       123   981     130.5 
 124       124   979     154.2 
 125       125   980     139.5 
 126       126   980     139.8 
 127       127   981     128.1 
 128       128   980     134.0 
 129       129   979     133.5 
 130       130   979     172.3 
 131       131   980     127.2 
 132       132   980     146.3 
 133       133   979     134.5 
 134       134   979     120.5 
 135       135   979     129.0 
 136       136   980     136.4 
 137       137   979     169.2 
 138       138   979     123.9 
 139       139   979     114.7 
 140       140   980     125.2 
 141       141   980     143.2 
 142       142   978     105.3 
 143       143   980     149.0 
 144       144   979     124.6 
 145       145   980     113.3 
 146       146   978     130.9 
 147       147   979     116.4 
 148       148   979     114.7 
 149       149   979     100.1 
 150       150   979     100.1 
 151       210  1000      65.7 
 152       270   997      30.4 
 153       330  1000     137.3 
 154       390   996      58.2 
 155       450   996     132.2 
 156       510   996     105.1 
 157       570   994     127.1 
 158       630   998     140.6 
 159       810   983      95.3 
 160       990   980     150.7 
 161      1170   985     121.8 
 162      1350   986     135.2 
 163      1530   981     134.2 
 164      2070   980     122.4 
 165      2691   973      79.5 
 166      3405   978     222.2 
 167      4226   978     141.8 
 168      5170   976     151.6 
 169      6256   975     153.2 
 170      7505   974     119.1 
 171      8941   977     154.6 
 172     10592   975     157.9 
 173     12491   973     151.8 
 174     14675   979     142.7 
 175     17187   975     150.4 
 176     20076   974      60.2 
 177     23398   977     151.1 
 178     27218   979     192.4 
 179     31611   980     189.1 
 180     36663   980      43.5 
 181     42473   977      66.9 
 182     49155   978     142.5 
 183     56839   980     161.2 
 184     65676   977     121.1 
 185     75839   981     121.1 
