PC/104 FIRe Fluorometer 2.0.0
 4/ 8/2025     37027
LED Color:           blue
Gain:               2000
Sample Delay (msec):    10
Number Samples:   3
STF (usec):      150
STRP (#samples):       35
STRI (usec):       60
MTF (ms):        0
MTF (#samples):     0
MTRP (#samples):        0
MTRI (usec):      100
PQLen:     4
Ambient Light Source Power: Off
PAR (uMol/m^2/s):900.00
Comment:
Depth(m):  -0.4
Temperature(C):  72.5
Battery(V):  14.39

         Time    EX   Fl-Yield 
DATA--------------------------
   0         0     0       0.0 
   1         1   156      91.9 
   2         2   817     279.9 
   3         3   953     290.7 
   4         4   969     305.1 
   5         5   972     329.9 
   6         6   973     279.9 
   7         7   973     327.9 
   8         8   977     350.7 
   9         9   974     310.1 
  10        10   975     315.2 
  11        11   976     316.9 
  12        12   977     331.6 
  13        13   977     324.8 
  14        14   977     319.0 
  15        15   977     315.6 
  16        16   978     307.4 
  17        17   980     352.7 
  18        18   977     337.1 
  19        19   978     333.0 
  20        20   979     340.5 
  21        21   980     382.7 
  22        22   979     332.0 
  23        23   979     353.8 
  24        24   979     331.3 
  25        25   980     362.2 
  26        26   980     383.3 
  27        27   978     376.6 
  28        28   980     378.6 
  29        29   980     406.5 
  30        30   980     390.5 
  31        31   980     371.1 
  32        32   980     360.5 
  33        33   980     340.8 
  34        34   981     416.6 
  35        35   981     394.8 
  36        36   980     361.6 
  37        37   981     346.6 
  38        38   980     438.8 
  39        39   981     369.4 
  40        40   980     386.1 
  41        41   981     380.9 
  42        42   980     437.4 
  43        43   982     449.1 
  44        44   981     424.4 
  45        45   980     373.5 
  46        46   981     384.6 
  47        47   982     439.2 
  48        48   982     396.8 
  49        49   981     382.9 
  50        50   981     368.3 
  51        51   980     356.5 
  52        52   983     399.1 
  53        53   981     381.9 
  54        54   981     386.7 
  55        55   981     441.0 
  56        56   982     385.3 
  57        57   982     380.5 
  58        58   981     391.1 
  59        59   981     397.6 
  60        60   980     441.2 
  61        61   983     431.0 
  62        62   981     389.7 
  63        63   981     354.4 
  64        64   981     423.0 
  65        65   982     409.4 
  66        66   982     402.2 
  67        67   981     415.2 
  68        68   981     401.0 
  69        69   981     482.8 
  70        70   983     438.8 
  71        71   980     472.8 
  72        72   981     383.3 
  73        73   981     450.9 
  74        74   982     426.0 
  75        75   981     453.3 
  76        76   980     392.9 
  77        77   980     440.5 
  78        78   982     472.5 
  79        79   982     454.5 
  80        80   980     432.3 
  81        81   981     421.3 
  82        82   980     451.4 
  83        83   982     425.0 
  84        84   980     471.1 
  85        85   980     413.6 
  86        86   980     436.7 
  87        87   982     472.5 
  88        88   981     443.4 
  89        89   980     431.0 
  90        90   981     434.3 
  91        91   981     440.0 
  92        92   982     421.2 
  93        93   980     373.8 
  94        94   980     400.7 
  95        95   980     428.2 
  96        96   982     449.8 
  97        97   981     422.4 
  98        98   980     407.8 
  99        99   980     420.4 
 100       100   980     425.2 
 101       101   981     430.9 
 102       102   980     411.6 
 103       103   980     382.3 
 104       104   980     425.5 
 105       105   982     449.4 
 106       106   980     409.9 
 107       107   980     467.7 
 108       108   980     428.2 
 109       109   981     469.6 
 110       110   980     451.7 
 111       111   980     412.9 
 112       112   980     495.2 
 113       113   980     472.1 
 114       114   981     436.6 
 115       115   980     381.3 
 116       116   980     412.9 
 117       117   980     428.2 
 118       118   980     438.8 
 119       119   980     419.0 
 120       120   979     433.4 
 121       121   980     459.5 
 122       122   980     428.2 
 123       123   981     458.4 
 124       124   979     432.8 
 125       125   980     417.7 
 126       126   980     472.4 
 127       127   981     402.7 
 128       128   980     430.6 
 129       129   979     391.6 
 130       130   979     416.1 
 131       131   980     449.3 
 132       132   980     412.9 
 133       133   979     390.9 
 134       134   979     433.4 
 135       135   979     406.2 
 136       136   980     436.1 
 137       137   979     393.6 
 138       138   979     398.4 
 139       139   979     426.3 
 140       140   980     399.7 
 141       141   980     401.4 
 142       142   978     413.8 
 143       143   980     418.4 
 144       144   979     384.1 
 145       145   980     386.7 
 146       146   978     372.5 
 147       147   979     393.6 
 148       148   979     399.0 
 149       149   979     435.1 
 150       150   979     435.1 
 151       210  1000     566.0 
 152       270   997     418.3 
 153       330  1000     492.7 
 154       390   996     376.8 
 155       450   996     459.8 
 156       510   996     400.3 
 157       570   994     513.7 
 158       630   998     341.0 
 159       810   983     429.3 
 160       990   980     382.3 
 161      1170   985     420.3 
 162      1350   986     381.0 
 163      1530   981     326.5 
 164      2070   980     290.8 
 165      2691   973     393.6 
 166      3405   978     335.7 
 167      4226   978     322.4 
 168      5170   976     374.3 
 169      6256   975     470.8 
 170      7505   974     404.5 
 171      8941   977     335.0 
 172     10592   975     363.8 
 173     12491   973     306.6 
 174     14675   979     264.2 
 175     17187   975     303.6 
 176     20076   974     354.6 
 177     23398   977     276.0 
 178     27218   979     394.6 
 179     31611   980     289.1 
 180     36663   980     348.6 
 181     42473   977     264.1 
 182     49155   978     431.2 
 183     56839   980     385.0 
 184     65676   977     372.9 
 185     75839   981     372.9 
   1         1   156     341.9 
   2         2   817     452.1 
   3         3   953     459.6 
   4         4   969     565.2 
   5         5   972     470.9 
   6         6   973     471.7 
   7         7   973     485.4 
   8         8   977     521.3 
   9         9   974     503.1 
  10        10   975     546.7 
  11        11   976     540.6 
  12        12   977     549.3 
  13        13   977     657.8 
  14        14   977     572.5 
  15        15   977     567.7 
  16        16   978     595.8 
  17        17   980     649.3 
  18        18   977     565.3 
  19        19   978     534.8 
  20        20   979     579.5 
  21        21   980     564.6 
  22        22   979     580.5 
  23        23   979     487.2 
  24        24   979     478.4 
  25        25   980     493.2 
  26        26   980     541.8 
  27        27   978     482.3 
  28        28   980     493.2 
  29        29   980     491.2 
  30        30   980     551.0 
  31        31   980     521.4 
  32        32   980     486.1 
  33        33   980     489.1 
  34        34   981     491.3 
  35        35   981     564.1 
  36        36   980     493.5 
  37        37   981     491.0 
  38        38   980     522.4 
  39        39   981     510.0 
  40        40   980     520.1 
  41        41   981     479.8 
  42        42   980     474.8 
  43        43   982     521.7 
  44        44   981     571.5 
  45        45   980     506.8 
  46        46   981     519.2 
  47        47   982     505.4 
  48        48   982     585.5 
  49        49   981     497.8 
  50        50   981     467.9 
  51        51   980     549.7 
  52        52   983     539.2 
  53        53   981     558.6 
  54        54   981     510.7 
  55        55   981     505.9 
  56        56   982     551.3 
  57        57   982     577.1 
  58        58   981     535.2 
  59        59   981     500.2 
  60        60   980     517.7 
  61        61   983     588.7 
  62        62   981     546.0 
  63        63   981     553.5 
  64        64   981     509.7 
  65        65   982     591.0 
  66        66   982     581.1 
  67        67   981     560.3 
  68        68   981     515.8 
  69        69   981     573.9 
  70        70   983     556.1 
  71        71   980     585.0 
  72        72   981     511.7 
  73        73   981     526.0 
  74        74   982     569.2 
  75        75   981     577.3 
  76        76   980     557.1 
  77        77   980     513.3 
  78        78   982     556.3 
  79        79   982     568.2 
  80        80   980     548.6 
  81        81   981     559.6 
  82        82   980     549.0 
  83        83   982     560.1 
  84        84   980     539.5 
  85        85   980     520.1 
  86        86   980     561.6 
  87        87   982     548.2 
  88        88   981     541.6 
  89        89   980     542.5 
  90        90   981     516.1 
  91        91   981     550.8 
  92        92   982     602.5 
  93        93   980     528.9 
  94        94   980     570.1 
  95        95   980     563.6 
  96        96   982     615.1 
  97        97   981     541.3 
  98        98   980     563.9 
  99        99   980     543.2 
 100       100   980     609.2 
 101       101   981     611.6 
 102       102   980     494.6 
 103       103   980     534.0 
 104       104   980     529.3 
 105       105   982     554.3 
 106       106   980     524.1 
 107       107   980     475.2 
 108       108   980     529.9 
 109       109   981     590.2 
 110       110   980     561.2 
 111       111   980     534.7 
 112       112   980     528.2 
 113       113   980     563.3 
 114       114   981     562.0 
 115       115   980     466.7 
 116       116   980     549.3 
 117       117   980     505.1 
 118       118   980     599.7 
 119       119   980     518.7 
 120       120   979     520.9 
 121       121   980     477.6 
 122       122   980     543.5 
 123       123   981     539.6 
 124       124   979     500.2 
 125       125   980     522.8 
 126       126   980     520.4 
 127       127   981     525.7 
 128       128   980     504.4 
 129       129   979     499.8 
 130       130   979     507.0 
 131       131   980     558.5 
 132       132   980     476.9 
 133       133   979     480.1 
 134       134   979     509.0 
 135       135   979     551.6 
 136       136   980     533.0 
 137       137   979     509.0 
 138       138   979     517.9 
 139       139   979     535.6 
 140       140   980     592.2 
 141       141   980     515.6 
 142       142   978     498.6 
 143       143   980     482.3 
 144       144   979     534.2 
 145       145   980     527.6 
 146       146   978     537.2 
 147       147   979     495.1 
 148       148   979     525.7 
 149       149   979     522.6 
 150       150   979     522.6 
 151       210  1000     635.3 
 152       270   997     632.2 
 153       330  1000     612.7 
 154       390   996     434.4 
 155       450   996     577.3 
 156       510   996     541.8 
 157       570   994     474.2 
 158       630   998     467.3 
 159       810   983     489.0 
 160       990   980     394.6 
 161      1170   985     588.2 
 162      1350   986     509.8 
 163      1530   981     637.1 
 164      2070   980     498.3 
 165      2691   973     562.9 
 166      3405   978     465.9 
 167      4226   978     577.4 
 168      5170   976     433.1 
 169      6256   975     460.2 
 170      7505   974     503.8 
 171      8941   977     559.2 
 172     10592   975     448.5 
 173     12491   973     605.3 
 174     14675   979     551.6 
 175     17187   975     596.6 
 176     20076   974     597.5 
 177     23398   977     454.5 
 178     27218   979     512.1 
 179     31611   980     464.3 
 180     36663   980     463.9 
 181     42473   977     516.5 
 182     49155   978     407.6 
 183     56839   980     460.5 
 184     65676   977     304.7 
 185     75839   981     304.7 
