PC/104 FIRe Fluorometer 2.0.0
 4/ 8/2025     28024
LED Color:           blue
Gain:               1800
Sample Delay (msec):    10
Number Samples:   3
STF (usec):      150
STRP (#samples):       35
STRI (usec):       60
MTF (ms):        0
MTF (#samples):     0
MTRP (#samples):        0
MTRI (usec):      100
PQLen:     4
Ambient Light Source Power: Off
PAR (uMol/m^2/s):350.00
Comment:
Depth(m):   4.0
Temperature(C):  46.3
Battery(V):  16.22

         Time    EX   Fl-Yield 
DATA--------------------------
   0         0     0       0.0 
   1         1   156     -66.2 
   2         2   817     278.7 
   3         3   953     324.2 
   4         4   969     271.1 
   5         5   972     264.1 
   6         6   973     306.6 
   7         7   973     337.4 
   8         8   977     307.4 
   9         9   974     311.8 
  10        10   975     269.7 
  11        11   976     359.3 
  12        12   977     346.0 
  13        13   977     349.7 
  14        14   977     305.4 
  15        15   977     343.6 
  16        16   978     373.6 
  17        17   980     346.9 
  18        18   977     343.2 
  19        19   978     365.7 
  20        20   979     430.7 
  21        21   980     388.4 
  22        22   979     368.4 
  23        23   979     370.1 
  24        24   979     382.0 
  25        25   980     429.9 
  26        26   980     379.6 
  27        27   978     377.6 
  28        28   980     374.8 
  29        29   980     440.5 
  30        30   980     368.4 
  31        31   980     351.0 
  32        32   980     394.9 
  33        33   980     446.3 
  34        34   981     427.5 
  35        35   981     383.3 
  36        36   980     388.4 
  37        37   981     449.2 
  38        38   980     468.4 
  39        39   981     418.6 
  40        40   980     415.6 
  41        41   981     399.9 
  42        42   980     467.7 
  43        43   982     467.4 
  44        44   981     416.9 
  45        45   980     445.9 
  46        46   981     486.2 
  47        47   982     459.3 
  48        48   982     439.6 
  49        49   981     436.6 
  50        50   981     470.6 
  51        51   980     498.0 
  52        52   983     465.9 
  53        53   981     460.4 
  54        54   981     467.9 
  55        55   981     518.5 
  56        56   982     482.3 
  57        57   982     445.0 
  58        58   981     451.6 
  59        59   981     475.7 
  60        60   980     506.8 
  61        61   983     478.1 
  62        62   981     445.5 
  63        63   981     458.7 
  64        64   981     484.5 
  65        65   982     470.1 
  66        66   982     473.5 
  67        67   981     493.4 
  68        68   981     517.5 
  69        69   981     504.9 
  70        70   983     461.9 
  71        71   980     444.2 
  72        72   981     502.2 
  73        73   981     516.5 
  74        74   982     455.2 
  75        75   981     442.7 
  76        76   980     459.9 
  77        77   980     521.8 
  78        78   982     478.6 
  79        79   982     454.2 
  80        80   980     452.4 
  81        81   981     475.7 
  82        82   980     503.4 
  83        83   982     464.7 
  84        84   980     470.4 
  85        85   980     453.4 
  86        86   980     528.2 
  87        87   982     460.6 
  88        88   981     474.7 
  89        89   980     511.6 
  90        90   981     518.2 
  91        91   981     546.7 
  92        92   982     470.8 
  93        93   980     454.8 
  94        94   980     511.2 
  95        95   980     537.8 
  96        96   982     461.3 
  97        97   981     498.8 
  98        98   980     498.6 
  99        99   980     533.0 
 100       100   980     497.6 
 101       101   981     475.0 
 102       102   980     496.9 
 103       103   980     539.5 
 104       104   980     508.8 
 105       105   982     493.9 
 106       106   980     495.2 
 107       107   980     527.9 
 108       108   980     547.6 
 109       109   981     459.1 
 110       110   980     463.9 
 111       111   980     533.3 
 112       112   980     556.5 
 113       113   980     533.3 
 114       114   981     501.5 
 115       115   980     510.5 
 116       116   980     516.3 
 117       117   980     536.7 
 118       118   980     477.9 
 119       119   980     489.5 
 120       120   979     490.6 
 121       121   980     573.8 
 122       122   980     459.2 
 123       123   981     466.2 
 124       124   979     489.6 
 125       125   980     545.9 
 126       126   980     518.4 
 127       127   981     455.3 
 128       128   980     486.4 
 129       129   979     500.5 
 130       130   979     542.0 
 131       131   980     474.1 
 132       132   980     453.1 
 133       133   979     481.4 
 134       134   979     549.9 
 135       135   979     487.2 
 136       136   980     471.1 
 137       137   979     456.6 
 138       138   979     470.9 
 139       139   979     499.8 
 140       140   980     452.4 
 141       141   980     462.2 
 142       142   978     539.5 
 143       143   980     549.0 
 144       144   979     481.4 
 145       145   980     443.5 
 146       146   978     488.4 
 147       147   979     532.9 
 148       148   979     499.8 
 149       149   979     517.9 
 150       150   979     517.9 
 151       210  1000     604.3 
 152       270   997     423.6 
 153       330  1000     466.0 
 154       390   996     578.3 
 155       450   996     435.7 
 156       510   996     352.1 
 157       570   994     455.4 
 158       630   998     522.0 
 159       810   983     467.6 
 160       990   980     370.7 
 161      1170   985     301.9 
 162      1350   986     371.5 
 163      1530   981     439.0 
 164      2070   980     303.4 
 165      2691   973     297.4 
 166      3405   978     335.7 
 167      4226   978     279.8 
 168      5170   976     197.4 
 169      6256   975     445.8 
 170      7505   974     396.3 
 171      8941   977     290.7 
 172     10592   975     407.5 
 173     12491   973     229.9 
 174     14675   979     363.0 
 175     17187   975     419.5 
 176     20076   974     395.3 
 177     23398   977     337.1 
 178     27218   979     368.1 
 179     31611   980     307.5 
 180     36663   980     395.2 
 181     42473   977     356.9 
 182     49155   978     385.1 
 183     56839   980     405.4 
 184     65676   977     362.3 
 185     75839   981     362.3 
   1         1   156     615.4 
   2         2   817     638.5 
   3         3   953     595.3 
   4         4   969     593.4 
   5         5   972     591.2 
   6         6   973     624.2 
   7         7   973     633.4 
   8         8   977     622.0 
   9         9   974     630.7 
  10        10   975     616.4 
  11        11   976     660.5 
  12        12   977     660.9 
  13        13   977     668.7 
  14        14   977     641.1 
  15        15   977     682.4 
  16        16   978     683.0 
  17        17   980     711.9 
  18        18   977     642.8 
  19        19   978     679.6 
  20        20   979     653.4 
  21        21   980     648.3 
  22        22   979     655.1 
  23        23   979     643.9 
  24        24   979     655.4 
  25        25   980     664.6 
  26        26   980     613.6 
  27        27   978     604.3 
  28        28   980     617.7 
  29        29   980     678.2 
  30        30   980     634.0 
  31        31   980     643.9 
  32        32   980     632.3 
  33        33   980     637.1 
  34        34   981     658.2 
  35        35   981     671.1 
  36        36   980     634.0 
  37        37   981     639.8 
  38        38   980     647.6 
  39        39   981     662.6 
  40        40   980     677.6 
  41        41   981     640.5 
  42        42   980     655.1 
  43        43   982     672.4 
  44        44   981     639.1 
  45        45   980     658.5 
  46        46   981     705.1 
  47        47   982     696.5 
  48        48   982     658.2 
  49        49   981     650.0 
  50        50   981     628.3 
  51        51   980     685.7 
  52        52   983     670.1 
  53        53   981     677.5 
  54        54   981     645.9 
  55        55   981     690.8 
  56        56   982     680.9 
  57        57   982     667.0 
  58        58   981     675.5 
  59        59   981     677.2 
  60        60   980     716.0 
  61        61   983     662.9 
  62        62   981     669.0 
  63        63   981     645.6 
  64        64   981     695.5 
  65        65   982     713.5 
  66        66   982     648.3 
  67        67   981     641.2 
  68        68   981     678.2 
  69        69   981     664.6 
  70        70   983     645.6 
  71        71   980     655.4 
  72        72   981     624.5 
  73        73   981     686.0 
  74        74   982     647.3 
  75        75   981     670.7 
  76        76   980     638.8 
  77        77   980     661.6 
  78        78   982     643.6 
  79        79   982     627.0 
  80        80   980     658.5 
  81        81   981     644.2 
  82        82   980     654.4 
  83        83   982     660.9 
  84        84   980     637.1 
  85        85   980     638.4 
  86        86   980     635.0 
  87        87   982     641.2 
  88        88   981     657.2 
  89        89   980     631.0 
  90        90   981     665.0 
  91        91   981     659.9 
  92        92   982     646.6 
  93        93   980     662.6 
  94        94   980     650.3 
  95        95   980     678.9 
  96        96   982     633.1 
  97        97   981     680.6 
  98        98   980     669.0 
  99        99   980     690.8 
 100       100   980     652.0 
 101       101   981     634.0 
 102       102   980     641.5 
 103       103   980     647.6 
 104       104   980     663.6 
 105       105   982     666.7 
 106       106   980     624.5 
 107       107   980     616.7 
 108       108   980     661.2 
 109       109   981     622.5 
 110       110   980     652.4 
 111       111   980     653.7 
 112       112   980     660.9 
 113       113   980     639.8 
 114       114   981     657.2 
 115       115   980     671.4 
 116       116   980     673.1 
 117       117   980     722.8 
 118       118   980     654.4 
 119       119   980     655.4 
 120       120   979     697.0 
 121       121   980     724.5 
 122       122   980     699.3 
 123       123   981     704.7 
 124       124   979     686.4 
 125       125   980     651.0 
 126       126   980     665.6 
 127       127   981     707.1 
 128       128   980     675.2 
 129       129   979     668.7 
 130       130   979     709.2 
 131       131   980     687.1 
 132       132   980     696.9 
 133       133   979     713.0 
 134       134   979     730.3 
 135       135   979     728.6 
 136       136   980     675.2 
 137       137   979     683.0 
 138       138   979     710.2 
 139       139   979     727.3 
 140       140   980     703.4 
 141       141   980     696.9 
 142       142   978     702.5 
 143       143   980     716.0 
 144       144   979     663.3 
 145       145   980     717.3 
 146       146   978     690.5 
 147       147   979     716.4 
 148       148   979     699.7 
 149       149   979     683.4 
 150       150   979     683.4 
 151       210  1000     577.7 
 152       270   997     621.2 
 153       330  1000     697.3 
 154       390   996     618.5 
 155       450   996     576.0 
 156       510   996     698.5 
 157       570   994     661.3 
 158       630   998     658.7 
 159       810   983     618.2 
 160       990   980     685.4 
 161      1170   985     687.0 
 162      1350   986     692.4 
 163      1530   981     712.5 
 164      2070   980     565.3 
 165      2691   973     606.7 
 166      3405   978     673.1 
 167      4226   978     471.0 
 168      5170   976     596.0 
 169      6256   975     629.4 
 170      7505   974     570.5 
 171      8941   977     513.8 
 172     10592   975     564.1 
 173     12491   973     623.2 
 174     14675   979     566.6 
 175     17187   975     468.4 
 176     20076   974     499.3 
 177     23398   977     458.5 
 178     27218   979     507.3 
 179     31611   980     404.8 
 180     36663   980     504.4 
 181     42473   977     477.3 
 182     49155   978     443.4 
 183     56839   980     401.4 
 184     65676   977     415.6 
 185     75839   981     415.6 
