PC/104 FIRe Fluorometer 2.0.0
 4/ 8/2025     33253
LED Color:           blue
Gain:               2000
Sample Delay (msec):    10
Number Samples:   3
STF (usec):      150
STRP (#samples):       35
STRI (usec):       60
MTF (ms):        0
MTF (#samples):     0
MTRP (#samples):        0
MTRI (usec):      100
PQLen:     4
Ambient Light Source Power: Off
PAR (uMol/m^2/s):900.00
Comment:
Depth(m):   1.1
Temperature(C):  66.5
Battery(V):  15.14

         Time    EX   Fl-Yield 
DATA--------------------------
   0         0     0       0.0 
   1         1   156    -104.7 
   2         2   817     179.1 
   3         3   953     241.3 
   4         4   969     259.7 
   5         5   972     297.7 
   6         6   973     274.4 
   7         7   973     260.0 
   8         8   977     247.4 
   9         9   974     275.8 
  10        10   975     305.0 
  11        11   976     299.2 
  12        12   977     245.3 
  13        13   977     310.5 
  14        14   977     303.3 
  15        15   977     266.5 
  16        16   978     321.4 
  17        17   980     320.1 
  18        18   977     309.8 
  19        19   978     299.3 
  20        20   979     284.3 
  21        21   980     336.1 
  22        22   979     326.9 
  23        23   979     294.2 
  24        24   979     289.4 
  25        25   980     289.1 
  26        26   980     348.6 
  27        27   978     336.7 
  28        28   980     303.7 
  29        29   980     277.2 
  30        30   980     370.1 
  31        31   980     354.4 
  32        32   980     325.9 
  33        33   980     304.8 
  34        34   981     399.3 
  35        35   981     319.1 
  36        36   980     344.9 
  37        37   981     353.7 
  38        38   980     365.6 
  39        39   981     395.9 
  40        40   980     308.5 
  41        41   981     315.7 
  42        42   980     357.5 
  43        43   982     366.9 
  44        44   981     358.1 
  45        45   980     332.7 
  46        46   981     302.1 
  47        47   982     310.6 
  48        48   982     391.4 
  49        49   981     348.6 
  50        50   981     330.3 
  51        51   980     321.1 
  52        52   983     365.2 
  53        53   981     363.2 
  54        54   981     363.9 
  55        55   981     358.1 
  56        56   982     367.6 
  57        57   982     340.8 
  58        58   981     318.0 
  59        59   981     353.0 
  60        60   980     344.9 
  61        61   983     397.8 
  62        62   981     348.6 
  63        63   981     312.9 
  64        64   981     316.7 
  65        65   982     355.4 
  66        66   982     352.0 
  67        67   981     328.9 
  68        68   981     321.8 
  69        69   981     347.3 
  70        70   983     421.2 
  71        71   980     369.0 
  72        72   981     349.0 
  73        73   981     328.2 
  74        74   982     378.8 
  75        75   981     363.6 
  76        76   980     318.0 
  77        77   980     331.6 
  78        78   982     350.6 
  79        79   982     365.6 
  80        80   980     345.9 
  81        81   981     333.7 
  82        82   980     299.3 
  83        83   982     372.0 
  84        84   980     330.6 
  85        85   980     327.6 
  86        86   980     349.0 
  87        87   982     353.0 
  88        88   981     355.4 
  89        89   980     302.4 
  90        90   981     328.2 
  91        91   981     333.3 
  92        92   982     370.0 
  93        93   980     323.5 
  94        94   980     365.3 
  95        95   980     383.0 
  96        96   982     352.7 
  97        97   981     371.0 
  98        98   980     327.6 
  99        99   980     308.5 
 100       100   980     341.5 
 101       101   981     364.3 
 102       102   980     405.4 
 103       103   980     348.6 
 104       104   980     340.8 
 105       105   982     360.8 
 106       106   980     341.8 
 107       107   980     326.9 
 108       108   980     362.2 
 109       109   981     340.1 
 110       110   980     351.0 
 111       111   980     334.4 
 112       112   980     349.3 
 113       113   980     364.6 
 114       114   981     357.1 
 115       115   980     360.2 
 116       116   980     330.3 
 117       117   980     324.5 
 118       118   980     356.5 
 119       119   980     361.6 
 120       120   979     348.7 
 121       121   980     304.8 
 122       122   980     306.8 
 123       123   981     361.2 
 124       124   979     345.6 
 125       125   980     390.5 
 126       126   980     310.5 
 127       127   981     369.7 
 128       128   980     345.9 
 129       129   979     343.5 
 130       130   979     287.4 
 131       131   980     344.6 
 132       132   980     323.5 
 133       133   979     332.3 
 134       134   979     308.1 
 135       135   979     321.4 
 136       136   980     361.9 
 137       137   979     343.2 
 138       138   979     339.1 
 139       139   979     309.2 
 140       140   980     365.6 
 141       141   980     344.2 
 142       142   978     322.4 
 143       143   980     305.4 
 144       144   979     292.1 
 145       145   980     341.5 
 146       146   978     338.1 
 147       147   979     347.0 
 148       148   979     328.6 
 149       149   979     330.3 
 150       150   979     330.3 
 151       210  1000     352.7 
 152       270   997     257.8 
 153       330  1000     391.7 
 154       390   996     324.0 
 155       450   996     268.4 
 156       510   996     352.7 
 157       570   994     311.2 
 158       630   998     326.3 
 159       810   983     292.0 
 160       990   980     271.8 
 161      1170   985     449.4 
 162      1350   986     327.6 
 163      1530   981     220.5 
 164      2070   980     284.7 
 165      2691   973     439.9 
 166      3405   978     294.8 
 167      4226   978     368.8 
 168      5170   976     269.1 
 169      6256   975     367.9 
 170      7505   974     293.3 
 171      8941   977     312.2 
 172     10592   975     225.3 
 173     12491   973     298.0 
 174     14675   979     374.9 
 175     17187   975     393.5 
 176     20076   974     311.4 
 177     23398   977     345.6 
 178     27218   979     251.6 
 179     31611   980     303.4 
 180     36663   980     328.2 
 181     42473   977     281.1 
 182     49155   978     352.4 
 183     56839   980     289.5 
 184     65676   977     255.9 
 185     75839   981     255.9 
   1         1   156     183.8 
   2         2   817     231.7 
   3         3   953     311.6 
   4         4   969     230.5 
   5         5   972     246.9 
   6         6   973     262.4 
   7         7   973     303.2 
   8         8   977     319.0 
   9         9   974     304.6 
  10        10   975     342.9 
  11        11   976     352.8 
  12        12   977     399.5 
  13        13   977     450.4 
  14        14   977     382.5 
  15        15   977     388.9 
  16        16   978     351.1 
  17        17   980     427.2 
  18        18   977     383.8 
  19        19   978     407.3 
  20        20   979     343.9 
  21        21   980     373.1 
  22        22   979     327.5 
  23        23   979     380.7 
  24        24   979     357.8 
  25        25   980     344.2 
  26        26   980     319.0 
  27        27   978     316.3 
  28        28   980     331.6 
  29        29   980     344.6 
  30        30   980     319.0 
  31        31   980     302.0 
  32        32   980     250.7 
  33        33   980     299.3 
  34        34   981     360.9 
  35        35   981     319.7 
  36        36   980     242.9 
  37        37   981     300.7 
  38        38   980     305.8 
  39        39   981     318.7 
  40        40   980     277.6 
  41        41   981     316.3 
  42        42   980     319.7 
  43        43   982     291.6 
  44        44   981     329.9 
  45        45   980     229.3 
  46        46   981     292.2 
  47        47   982     328.9 
  48        48   982     325.2 
  49        49   981     241.9 
  50        50   981     321.8 
  51        51   980     297.6 
  52        52   983     353.3 
  53        53   981     293.2 
  54        54   981     282.4 
  55        55   981     302.1 
  56        56   982     318.1 
  57        57   982     266.8 
  58        58   981     317.7 
  59        59   981     299.7 
  60        60   980     359.5 
  61        61   983     298.7 
  62        62   981     256.2 
  63        63   981     255.9 
  64        64   981     314.6 
  65        65   982     299.4 
  66        66   982     304.8 
  67        67   981     261.3 
  68        68   981     262.7 
  69        69   981     329.3 
  70        70   983     313.0 
  71        71   980     295.6 
  72        72   981     273.5 
  73        73   981     284.7 
  74        74   982     335.7 
  75        75   981     304.8 
  76        76   980     266.7 
  77        77   980     268.7 
  78        78   982     307.9 
  79        79   982     259.0 
  80        80   980     246.9 
  81        81   981     322.5 
  82        82   980     306.5 
  83        83   982     272.6 
  84        84   980     230.3 
  85        85   980     261.9 
  86        86   980     277.9 
  87        87   982     302.1 
  88        88   981     270.1 
  89        89   980     227.9 
  90        90   981     247.0 
  91        91   981     265.7 
  92        92   982     298.7 
  93        93   980     232.7 
  94        94   980     241.5 
  95        95   980     306.1 
  96        96   982     292.6 
  97        97   981     252.8 
  98        98   980     221.8 
  99        99   980     262.2 
 100       100   980     294.2 
 101       101   981     300.7 
 102       102   980     253.4 
 103       103   980     273.5 
 104       104   980     279.3 
 105       105   982     278.7 
 106       106   980     301.0 
 107       107   980     268.4 
 108       108   980     262.2 
 109       109   981     292.9 
 110       110   980     290.8 
 111       111   980     313.6 
 112       112   980     289.1 
 113       113   980     281.3 
 114       114   981     314.0 
 115       115   980     246.9 
 116       116   980     270.4 
 117       117   980     294.6 
 118       118   980     314.6 
 119       119   980     289.8 
 120       120   979     254.7 
 121       121   980     248.6 
 122       122   980     324.1 
 123       123   981     293.9 
 124       124   979     289.8 
 125       125   980     259.2 
 126       126   980     255.8 
 127       127   981     356.8 
 128       128   980     305.4 
 129       129   979     241.7 
 130       130   979     293.5 
 131       131   980     303.1 
 132       132   980     280.6 
 133       133   979     263.5 
 134       134   979     291.8 
 135       135   979     297.9 
 136       136   980     338.1 
 137       137   979     312.2 
 138       138   979     345.3 
 139       139   979     281.9 
 140       140   980     366.0 
 141       141   980     314.6 
 142       142   978     288.7 
 143       143   980     331.6 
 144       144   979     344.2 
 145       145   980     345.2 
 146       146   978     284.9 
 147       147   979     283.6 
 148       148   979     328.6 
 149       149   979     294.2 
 150       150   979     294.2 
 151       210  1000     152.0 
 152       270   997     313.6 
 153       330  1000     174.7 
 154       390   996     303.2 
 155       450   996     232.6 
 156       510   996     354.1 
 157       570   994     201.9 
 158       630   998     350.7 
 159       810   983     312.0 
 160       990   980     297.3 
 161      1170   985     242.6 
 162      1350   986     366.1 
 163      1530   981     186.5 
 164      2070   980     290.5 
 165      2691   973     370.3 
 166      3405   978     180.6 
 167      4226   978     300.3 
 168      5170   976     252.7 
 169      6256   975     316.2 
 170      7505   974     235.5 
 171      8941   977     320.4 
 172     10592   975     226.3 
 173     12491   973     409.0 
 174     14675   979     288.4 
 175     17187   975     200.3 
 176     20076   974     317.9 
 177     23398   977     336.7 
 178     27218   979     488.6 
 179     31611   980     237.8 
 180     36663   980     182.3 
 181     42473   977     232.0 
 182     49155   978     252.2 
 183     56839   980     313.3 
 184     65676   977     274.7 
 185     75839   981     274.7 
