PC/104 FIRe Fluorometer 2.0.0
 4/ 8/2025     33382
LED Color:           blue
Gain:               1300
Sample Delay (msec):    10
Number Samples:   3
STF (usec):      150
STRP (#samples):       35
STRI (usec):       60
MTF (ms):        0
MTF (#samples):     0
MTRP (#samples):        0
MTRI (usec):      100
PQLen:     4
Ambient Light Source Power: Off
PAR (uMol/m^2/s):585.76
Comment:
Depth(m):   1.8
Temperature(C):  66.5
Battery(V):  15.12

         Time    EX   Fl-Yield 
DATA--------------------------
   0         0     0       0.0 
   1         1   156      51.3 
   2         2   817     190.1 
   3         3   953     202.2 
   4         4   969     207.1 
   5         5   972     204.4 
   6         6   973     210.3 
   7         7   973     218.6 
   8         8   977     220.1 
   9         9   974     219.4 
  10        10   975     201.0 
  11        11   976     219.6 
  12        12   977     224.5 
  13        13   977     228.6 
  14        14   977     222.8 
  15        15   977     221.1 
  16        16   978     230.1 
  17        17   980     235.0 
  18        18   977     229.6 
  19        19   978     232.1 
  20        20   979     230.5 
  21        21   980     245.6 
  22        22   979     238.7 
  23        23   979     232.6 
  24        24   979     233.9 
  25        25   980     250.0 
  26        26   980     248.3 
  27        27   978     235.9 
  28        28   980     233.7 
  29        29   980     239.5 
  30        30   980     244.9 
  31        31   980     251.0 
  32        32   980     231.0 
  33        33   980     250.0 
  34        34   981     249.1 
  35        35   981     263.3 
  36        36   980     246.3 
  37        37   981     238.9 
  38        38   980     250.3 
  39        39   981     247.0 
  40        40   980     246.9 
  41        41   981     240.9 
  42        42   980     243.9 
  43        43   982     251.5 
  44        44   981     251.4 
  45        45   980     242.9 
  46        46   981     244.3 
  47        47   982     239.3 
  48        48   982     263.7 
  49        49   981     249.4 
  50        50   981     242.3 
  51        51   980     247.3 
  52        52   983     249.6 
  53        53   981     246.7 
  54        54   981     241.9 
  55        55   981     236.5 
  56        56   982     237.9 
  57        57   982     248.8 
  58        58   981     235.8 
  59        59   981     244.6 
  60        60   980     247.6 
  61        61   983     251.6 
  62        62   981     245.7 
  63        63   981     236.5 
  64        64   981     240.9 
  65        65   982     252.2 
  66        66   982     253.2 
  67        67   981     247.7 
  68        68   981     247.4 
  69        69   981     249.1 
  70        70   983     261.1 
  71        71   980     243.5 
  72        72   981     251.1 
  73        73   981     246.3 
  74        74   982     255.9 
  75        75   981     258.6 
  76        76   980     241.2 
  77        77   980     247.3 
  78        78   982     245.4 
  79        79   982     252.9 
  80        80   980     249.7 
  81        81   981     241.9 
  82        82   980     257.5 
  83        83   982     258.3 
  84        84   980     253.7 
  85        85   980     240.5 
  86        86   980     237.1 
  87        87   982     247.5 
  88        88   981     259.9 
  89        89   980     253.7 
  90        90   981     246.0 
  91        91   981     256.5 
  92        92   982     255.6 
  93        93   980     254.8 
  94        94   980     249.0 
  95        95   980     257.5 
  96        96   982     260.0 
  97        97   981     268.8 
  98        98   980     255.1 
  99        99   980     251.7 
 100       100   980     260.5 
 101       101   981     268.1 
 102       102   980     262.6 
 103       103   980     256.8 
 104       104   980     253.1 
 105       105   982     265.1 
 106       106   980     270.4 
 107       107   980     254.8 
 108       108   980     261.6 
 109       109   981     267.1 
 110       110   980     274.5 
 111       111   980     261.9 
 112       112   980     259.2 
 113       113   980     269.0 
 114       114   981     280.3 
 115       115   980     268.7 
 116       116   980     259.9 
 117       117   980     263.3 
 118       118   980     271.1 
 119       119   980     269.7 
 120       120   979     252.3 
 121       121   980     259.9 
 122       122   980     261.9 
 123       123   981     269.5 
 124       124   979     268.0 
 125       125   980     253.1 
 126       126   980     259.9 
 127       127   981     260.3 
 128       128   980     267.7 
 129       129   979     255.7 
 130       130   979     261.8 
 131       131   980     263.9 
 132       132   980     269.4 
 133       133   979     260.5 
 134       134   979     252.0 
 135       135   979     260.1 
 136       136   980     270.4 
 137       137   979     266.3 
 138       138   979     253.0 
 139       139   979     253.0 
 140       140   980     256.1 
 141       141   980     274.5 
 142       142   978     249.5 
 143       143   980     250.3 
 144       144   979     245.5 
 145       145   980     251.7 
 146       146   978     252.6 
 147       147   979     256.4 
 148       148   979     249.2 
 149       149   979     249.2 
 150       150   979     249.2 
 151       210  1000     263.7 
 152       270   997     252.8 
 153       330  1000     268.0 
 154       390   996     248.7 
 155       450   996     257.7 
 156       510   996     246.7 
 157       570   994     232.7 
 158       630   998     264.5 
 159       810   983     224.1 
 160       990   980     233.7 
 161      1170   985     247.0 
 162      1350   986     245.4 
 163      1530   981     212.7 
 164      2070   980     202.0 
 165      2691   973     223.4 
 166      3405   978     225.6 
 167      4226   978     222.2 
 168      5170   976     228.5 
 169      6256   975     199.3 
 170      7505   974     237.5 
 171      8941   977     210.5 
 172     10592   975     199.7 
 173     12491   973     229.5 
 174     14675   979     193.7 
 175     17187   975     206.8 
 176     20076   974     211.5 
 177     23398   977     228.9 
 178     27218   979     221.7 
 179     31611   980     185.4 
 180     36663   980     187.8 
 181     42473   977     183.2 
 182     49155   978     221.9 
 183     56839   980     204.1 
 184     65676   977     216.0 
 185     75839   981     216.0 
   1         1   156     260.7 
   2         2   817     306.8 
   3         3   953     307.5 
   4         4   969     312.0 
   5         5   972     310.7 
   6         6   973     313.1 
   7         7   973     312.8 
   8         8   977     312.9 
   9         9   974     315.9 
  10        10   975     332.0 
  11        11   976     322.4 
  12        12   977     335.0 
  13        13   977     325.1 
  14        14   977     331.6 
  15        15   977     325.1 
  16        16   978     327.2 
  17        17   980     326.2 
  18        18   977     316.3 
  19        19   978     335.7 
  20        20   979     322.1 
  21        21   980     318.4 
  22        22   979     315.6 
  23        23   979     321.8 
  24        24   979     316.0 
  25        25   980     309.9 
  26        26   980     310.2 
  27        27   978     316.6 
  28        28   980     309.2 
  29        29   980     307.5 
  30        30   980     309.9 
  31        31   980     309.5 
  32        32   980     308.2 
  33        33   980     316.3 
  34        34   981     308.9 
  35        35   981     301.4 
  36        36   980     315.0 
  37        37   981     320.1 
  38        38   980     313.3 
  39        39   981     307.8 
  40        40   980     300.0 
  41        41   981     311.2 
  42        42   980     315.0 
  43        43   982     321.1 
  44        44   981     310.2 
  45        45   980     311.6 
  46        46   981     310.2 
  47        47   982     309.9 
  48        48   982     310.3 
  49        49   981     303.8 
  50        50   981     317.7 
  51        51   980     302.0 
  52        52   983     314.0 
  53        53   981     314.6 
  54        54   981     319.7 
  55        55   981     316.0 
  56        56   982     317.7 
  57        57   982     318.7 
  58        58   981     314.3 
  59        59   981     324.8 
  60        60   980     309.5 
  61        61   983     310.6 
  62        62   981     309.2 
  63        63   981     326.9 
  64        64   981     319.1 
  65        65   982     315.7 
  66        66   982     317.4 
  67        67   981     319.1 
  68        68   981     339.1 
  69        69   981     320.1 
  70        70   983     311.6 
  71        71   980     318.7 
  72        72   981     318.0 
  73        73   981     326.5 
  74        74   982     324.8 
  75        75   981     314.6 
  76        76   980     323.5 
  77        77   980     318.4 
  78        78   982     318.4 
  79        79   982     313.3 
  80        80   980     322.4 
  81        81   981     319.1 
  82        82   980     316.0 
  83        83   982     315.7 
  84        84   980     312.2 
  85        85   980     319.7 
  86        86   980     311.9 
  87        87   982     317.7 
  88        88   981     315.0 
  89        89   980     316.0 
  90        90   981     326.9 
  91        91   981     311.9 
  92        92   982     321.1 
  93        93   980     318.4 
  94        94   980     326.9 
  95        95   980     327.9 
  96        96   982     315.3 
  97        97   981     314.3 
  98        98   980     326.9 
  99        99   980     323.8 
 100       100   980     321.4 
 101       101   981     315.0 
 102       102   980     325.5 
 103       103   980     327.2 
 104       104   980     324.8 
 105       105   982     321.8 
 106       106   980     328.2 
 107       107   980     325.9 
 108       108   980     334.0 
 109       109   981     326.2 
 110       110   980     322.1 
 111       111   980     320.7 
 112       112   980     329.6 
 113       113   980     323.1 
 114       114   981     320.4 
 115       115   980     326.5 
 116       116   980     314.6 
 117       117   980     336.4 
 118       118   980     323.8 
 119       119   980     324.8 
 120       120   979     328.9 
 121       121   980     334.0 
 122       122   980     312.9 
 123       123   981     315.7 
 124       124   979     313.6 
 125       125   980     328.6 
 126       126   980     335.7 
 127       127   981     321.1 
 128       128   980     324.8 
 129       129   979     315.6 
 130       130   979     326.9 
 131       131   980     318.0 
 132       132   980     316.7 
 133       133   979     326.9 
 134       134   979     318.0 
 135       135   979     314.6 
 136       136   980     308.5 
 137       137   979     318.0 
 138       138   979     319.0 
 139       139   979     327.9 
 140       140   980     311.6 
 141       141   980     318.7 
 142       142   978     318.0 
 143       143   980     326.5 
 144       144   979     317.0 
 145       145   980     328.6 
 146       146   978     317.0 
 147       147   979     322.1 
 148       148   979     322.4 
 149       149   979     318.0 
 150       150   979     318.0 
 151       210  1000     319.3 
 152       270   997     329.0 
 153       330  1000     337.7 
 154       390   996     337.7 
 155       450   996     341.0 
 156       510   996     325.6 
 157       570   994     345.1 
 158       630   998     309.0 
 159       810   983     336.0 
 160       990   980     350.0 
 161      1170   985     319.5 
 162      1350   986     346.2 
 163      1530   981     324.8 
 164      2070   980     347.6 
 165      2691   973     336.8 
 166      3405   978     310.2 
 167      4226   978     332.7 
 168      5170   976     296.8 
 169      6256   975     338.5 
 170      7505   974     339.2 
 171      8941   977     289.7 
 172     10592   975     310.1 
 173     12491   973     303.5 
 174     14675   979     289.1 
 175     17187   975     294.4 
 176     20076   974     289.9 
 177     23398   977     319.7 
 178     27218   979     277.8 
 179     31611   980     283.3 
 180     36663   980     281.0 
 181     42473   977     291.0 
 182     49155   978     309.1 
 183     56839   980     275.2 
 184     65676   977     269.9 
 185     75839   981     269.9 
