PC/104 FIRe Fluorometer 2.0.0
 4/ 8/2025     29320
LED Color:           blue
Gain:               2000
Sample Delay (msec):    10
Number Samples:   3
STF (usec):      150
STRP (#samples):       35
STRI (usec):       60
MTF (ms):        0
MTF (#samples):     0
MTRP (#samples):        0
MTRI (usec):      100
PQLen:     4
Ambient Light Source Power: Off
PAR (uMol/m^2/s):900.00
Comment:
Depth(m):   3.0
Temperature(C):  51.7
Battery(V):  16.02

         Time    EX   Fl-Yield 
DATA--------------------------
   0         0     0       0.0 
   1         1   156     -70.5 
   2         2   817     289.7 
   3         3   953     265.1 
   4         4   969     290.7 
   5         5   972     329.6 
   6         6   973     303.9 
   7         7   973     315.2 
   8         8   977     320.7 
   9         9   974     374.1 
  10        10   975     380.5 
  11        11   976     380.5 
  12        12   977     358.6 
  13        13   977     343.6 
  14        14   977     326.9 
  15        15   977     362.7 
  16        16   978     309.8 
  17        17   980     336.7 
  18        18   977     349.0 
  19        19   978     348.7 
  20        20   979     330.3 
  21        21   980     331.0 
  22        22   979     358.5 
  23        23   979     393.9 
  24        24   979     342.5 
  25        25   980     353.7 
  26        26   980     338.8 
  27        27   978     387.2 
  28        28   980     378.2 
  29        29   980     359.5 
  30        30   980     382.7 
  31        31   980     358.5 
  32        32   980     417.7 
  33        33   980     411.2 
  34        34   981     375.5 
  35        35   981     334.4 
  36        36   980     366.0 
  37        37   981     392.1 
  38        38   980     353.7 
  39        39   981     393.5 
  40        40   980     369.0 
  41        41   981     410.1 
  42        42   980     375.5 
  43        43   982     392.1 
  44        44   981     416.6 
  45        45   980     400.3 
  46        46   981     404.7 
  47        47   982     433.1 
  48        48   982     352.3 
  49        49   981     423.0 
  50        50   981     401.6 
  51        51   980     448.3 
  52        52   983     407.6 
  53        53   981     428.5 
  54        54   981     426.4 
  55        55   981     403.0 
  56        56   982     434.8 
  57        57   982     393.8 
  58        58   981     402.3 
  59        59   981     418.6 
  60        60   980     446.9 
  61        61   983     394.0 
  62        62   981     443.8 
  63        63   981     381.6 
  64        64   981     465.2 
  65        65   982     403.6 
  66        66   982     445.3 
  67        67   981     471.3 
  68        68   981     437.0 
  69        69   981     415.9 
  70        70   983     427.3 
  71        71   980     452.4 
  72        72   981     447.8 
  73        73   981     431.5 
  74        74   982     465.4 
  75        75   981     474.0 
  76        76   980     411.2 
  77        77   980     428.6 
  78        78   982     428.0 
  79        79   982     447.7 
  80        80   980     510.2 
  81        81   981     473.3 
  82        82   980     451.7 
  83        83   982     433.5 
  84        84   980     464.3 
  85        85   980     436.4 
  86        86   980     502.4 
  87        87   982     474.5 
  88        88   981     461.4 
  89        89   980     443.9 
  90        90   981     512.1 
  91        91   981     539.9 
  92        92   982     481.3 
  93        93   980     497.3 
  94        94   980     530.3 
  95        95   980     493.2 
  96        96   982     470.5 
  97        97   981     530.4 
  98        98   980     526.2 
  99        99   980     495.9 
 100       100   980     479.3 
 101       101   981     506.3 
 102       102   980     492.2 
 103       103   980     501.4 
 104       104   980     546.3 
 105       105   982     489.1 
 106       106   980     494.6 
 107       107   980     532.3 
 108       108   980     542.2 
 109       109   981     499.5 
 110       110   980     480.6 
 111       111   980     455.1 
 112       112   980     481.3 
 113       113   980     488.8 
 114       114   981     453.3 
 115       115   980     483.3 
 116       116   980     495.6 
 117       117   980     478.6 
 118       118   980     454.8 
 119       119   980     425.5 
 120       120   979     499.5 
 121       121   980     524.1 
 122       122   980     498.0 
 123       123   981     449.9 
 124       124   979     479.1 
 125       125   980     429.6 
 126       126   980     483.7 
 127       127   981     476.0 
 128       128   980     487.1 
 129       129   979     428.7 
 130       130   979     508.7 
 131       131   980     465.3 
 132       132   980     464.6 
 133       133   979     443.0 
 134       134   979     501.2 
 135       135   979     477.7 
 136       136   980     507.1 
 137       137   979     438.2 
 138       138   979     490.3 
 139       139   979     469.2 
 140       140   980     507.5 
 141       141   980     435.7 
 142       142   978     469.0 
 143       143   980     486.7 
 144       144   979     457.6 
 145       145   980     484.4 
 146       146   978     419.9 
 147       147   979     468.2 
 148       148   979     468.5 
 149       149   979     499.5 
 150       150   979     499.5 
 151       210  1000     465.0 
 152       270   997     409.6 
 153       330  1000     550.3 
 154       390   996     361.8 
 155       450   996     476.9 
 156       510   996     388.6 
 157       570   994     594.9 
 158       630   998     405.1 
 159       810   983     440.5 
 160       990   980     431.0 
 161      1170   985     332.0 
 162      1350   986     495.3 
 163      1530   981     248.0 
 164      2070   980     399.0 
 165      2691   973     444.3 
 166      3405   978     281.5 
 167      4226   978     363.7 
 168      5170   976     274.6 
 169      6256   975     443.4 
 170      7505   974     430.2 
 171      8941   977     314.6 
 172     10592   975     379.1 
 173     12491   973     374.1 
 174     14675   979     329.2 
 175     17187   975     418.1 
 176     20076   974     404.2 
 177     23398   977     286.6 
 178     27218   979     482.1 
 179     31611   980     238.8 
 180     36663   980     294.9 
 181     42473   977     547.3 
 182     49155   978     297.2 
 183     56839   980     327.6 
 184     65676   977     294.8 
 185     75839   981     294.8 
   1         1   156     128.2 
   2         2   817     649.9 
   3         3   953     624.0 
   4         4   969     566.2 
   5         5   972     573.4 
   6         6   973     606.4 
   7         7   973     686.5 
   8         8   977     639.0 
   9         9   974     666.0 
  10        10   975     661.5 
  11        11   976     732.2 
  12        12   977     802.1 
  13        13   977     725.0 
  14        14   977     764.2 
  15        15   977     785.7 
  16        16   978     848.3 
  17        17   980     767.7 
  18        18   977     682.7 
  19        19   978     715.4 
  20        20   979     720.1 
  21        21   980     738.8 
  22        22   979     705.5 
  23        23   979     678.2 
  24        24   979     686.8 
  25        25   980     729.3 
  26        26   980     639.5 
  27        27   978     626.8 
  28        28   980     731.0 
  29        29   980     725.5 
  30        30   980     724.5 
  31        31   980     676.2 
  32        32   980     657.1 
  33        33   980     684.4 
  34        34   981     728.8 
  35        35   981     666.0 
  36        36   980     685.4 
  37        37   981     636.1 
  38        38   980     678.6 
  39        39   981     693.8 
  40        40   980     692.2 
  41        41   981     652.7 
  42        42   980     727.2 
  43        43   982     699.6 
  44        44   981     709.1 
  45        45   980     707.5 
  46        46   981     709.5 
  47        47   982     731.2 
  48        48   982     760.7 
  49        49   981     685.4 
  50        50   981     687.4 
  51        51   980     722.4 
  52        52   983     722.6 
  53        53   981     729.2 
  54        54   981     697.9 
  55        55   981     717.6 
  56        56   982     734.6 
  57        57   982     761.0 
  58        58   981     682.0 
  59        59   981     626.2 
  60        60   980     746.3 
  61        61   983     713.1 
  62        62   981     764.2 
  63        63   981     693.2 
  64        64   981     725.8 
  65        65   982     737.3 
  66        66   982     749.2 
  67        67   981     716.6 
  68        68   981     711.2 
  69        69   981     723.4 
  70        70   983     774.5 
  71        71   980     669.7 
  72        72   981     677.9 
  73        73   981     707.4 
  74        74   982     844.2 
  75        75   981     726.8 
  76        76   980     626.5 
  77        77   980     738.8 
  78        78   982     727.1 
  79        79   982     791.9 
  80        80   980     687.4 
  81        81   981     700.6 
  82        82   980     712.2 
  83        83   982     765.8 
  84        84   980     719.0 
  85        85   980     708.5 
  86        86   980     720.1 
  87        87   982     778.0 
  88        88   981     685.0 
  89        89   980     694.6 
  90        90   981     707.1 
  91        91   981     706.4 
  92        92   982     766.5 
  93        93   980     719.7 
  94        94   980     655.4 
  95        95   980     685.0 
  96        96   982     738.6 
  97        97   981     709.1 
  98        98   980     723.8 
  99        99   980     624.1 
 100       100   980     740.8 
 101       101   981     679.2 
 102       102   980     721.1 
 103       103   980     661.9 
 104       104   980     649.7 
 105       105   982     741.7 
 106       106   980     693.9 
 107       107   980     638.4 
 108       108   980     663.6 
 109       109   981     692.5 
 110       110   980     802.4 
 111       111   980     735.4 
 112       112   980     600.7 
 113       113   980     720.1 
 114       114   981     699.3 
 115       115   980     713.6 
 116       116   980     661.9 
 117       117   980     639.5 
 118       118   980     644.6 
 119       119   980     705.8 
 120       120   979     635.0 
 121       121   980     677.9 
 122       122   980     701.7 
 123       123   981     652.1 
 124       124   979     682.3 
 125       125   980     627.9 
 126       126   980     690.5 
 127       127   981     700.0 
 128       128   980     641.5 
 129       129   979     682.3 
 130       130   979     608.4 
 131       131   980     676.9 
 132       132   980     705.4 
 133       133   979     677.9 
 134       134   979     657.8 
 135       135   979     676.2 
 136       136   980     691.8 
 137       137   979     714.0 
 138       138   979     678.2 
 139       139   979     663.9 
 140       140   980     713.9 
 141       141   980     654.4 
 142       142   978     694.6 
 143       143   980     677.6 
 144       144   979     664.3 
 145       145   980     697.3 
 146       146   978     690.2 
 147       147   979     676.5 
 148       148   979     707.5 
 149       149   979     664.6 
 150       150   979     664.6 
 151       210  1000     703.7 
 152       270   997     669.3 
 153       330  1000     772.3 
 154       390   996     664.0 
 155       450   996     773.1 
 156       510   996     691.8 
 157       570   994     731.1 
 158       630   998     632.6 
 159       810   983     674.5 
 160       990   980     696.6 
 161      1170   985     662.6 
 162      1350   986     703.9 
 163      1530   981     667.7 
 164      2070   980     617.7 
 165      2691   973     728.3 
 166      3405   978     547.0 
 167      4226   978     659.2 
 168      5170   976     702.9 
 169      6256   975     529.6 
 170      7505   974     616.7 
 171      8941   977     649.6 
 172     10592   975     611.3 
 173     12491   973     475.8 
 174     14675   979     656.8 
 175     17187   975     574.4 
 176     20076   974     420.3 
 177     23398   977     764.6 
 178     27218   979     419.5 
 179     31611   980     377.6 
 180     36663   980     352.7 
 181     42473   977     395.8 
 182     49155   978     629.9 
 183     56839   980     436.4 
 184     65676   977     519.3 
 185     75839   981     519.3 
