PC/104 FIRe Fluorometer 2.0.0
 4/ 8/2025     26740
LED Color:           blue
Gain:               1500
Sample Delay (msec):    10
Number Samples:   3
STF (usec):      150
STRP (#samples):       35
STRI (usec):       60
MTF (ms):        0
MTF (#samples):     0
MTRP (#samples):        0
MTRI (usec):      100
PQLen:     4
Ambient Light Source Power: Off
PAR (uMol/m^2/s):802.04
Comment:
Depth(m):   3.5
Temperature(C):  40.0
Battery(V):  16.53

         Time    EX   Fl-Yield 
DATA--------------------------
   0         0     0       0.0 
   1         1   156     235.0 
   2         2   817     322.3 
   3         3   953     325.6 
   4         4   969     314.8 
   5         5   972     326.8 
   6         6   973     310.0 
   7         7   973     333.3 
   8         8   977     331.6 
   9         9   974     340.5 
  10        10   975     361.4 
  11        11   976     365.8 
  12        12   977     348.3 
  13        13   977     353.5 
  14        14   977     368.1 
  15        15   977     381.1 
  16        16   978     371.5 
  17        17   980     385.4 
  18        18   977     418.3 
  19        19   978     394.3 
  20        20   979     384.1 
  21        21   980     376.5 
  22        22   979     421.9 
  23        23   979     413.3 
  24        24   979     405.2 
  25        25   980     395.9 
  26        26   980     432.0 
  27        27   978     436.9 
  28        28   980     427.2 
  29        29   980     423.1 
  30        30   980     419.7 
  31        31   980     432.0 
  32        32   980     431.0 
  33        33   980     440.1 
  34        34   981     416.9 
  35        35   981     429.8 
  36        36   980     457.8 
  37        37   981     448.9 
  38        38   980     422.4 
  39        39   981     426.8 
  40        40   980     448.3 
  41        41   981     423.4 
  42        42   980     432.7 
  43        43   982     419.2 
  44        44   981     438.7 
  45        45   980     434.0 
  46        46   981     414.2 
  47        47   982     438.2 
  48        48   982     452.1 
  49        49   981     454.3 
  50        50   981     430.2 
  51        51   980     438.8 
  52        52   983     421.2 
  53        53   981     466.5 
  54        54   981     441.4 
  55        55   981     445.5 
  56        56   982     438.2 
  57        57   982     452.1 
  58        58   981     445.1 
  59        59   981     445.1 
  60        60   980     433.7 
  61        61   983     441.8 
  62        62   981     438.3 
  63        63   981     463.8 
  64        64   981     432.6 
  65        65   982     456.6 
  66        66   982     453.5 
  67        67   981     441.4 
  68        68   981     440.7 
  69        69   981     438.3 
  70        70   983     442.9 
  71        71   980     425.5 
  72        72   981     447.2 
  73        73   981     443.1 
  74        74   982     441.6 
  75        75   981     431.2 
  76        76   980     453.4 
  77        77   980     432.0 
  78        78   982     444.3 
  79        79   982     469.5 
  80        80   980     461.2 
  81        81   981     456.3 
  82        82   980     448.0 
  83        83   982     465.7 
  84        84   980     457.5 
  85        85   980     467.0 
  86        86   980     469.7 
  87        87   982     450.4 
  88        88   981     466.2 
  89        89   980     463.9 
  90        90   981     454.6 
  91        91   981     452.6 
  92        92   982     464.4 
  93        93   980     474.5 
  94        94   980     475.9 
  95        95   980     473.8 
  96        96   982     471.8 
  97        97   981     465.2 
  98        98   980     485.0 
  99        99   980     460.9 
 100       100   980     450.3 
 101       101   981     474.7 
 102       102   980     461.2 
 103       103   980     462.9 
 104       104   980     455.8 
 105       105   982     457.9 
 106       106   980     459.9 
 107       107   980     461.2 
 108       108   980     468.7 
 109       109   981     477.1 
 110       110   980     469.0 
 111       111   980     463.6 
 112       112   980     465.0 
 113       113   980     456.5 
 114       114   981     466.5 
 115       115   980     468.0 
 116       116   980     462.6 
 117       117   980     458.5 
 118       118   980     463.9 
 119       119   980     485.4 
 120       120   979     463.4 
 121       121   980     453.1 
 122       122   980     466.3 
 123       123   981     465.5 
 124       124   979     460.0 
 125       125   980     476.9 
 126       126   980     475.5 
 127       127   981     463.1 
 128       128   980     464.3 
 129       129   979     462.4 
 130       130   979     478.4 
 131       131   980     489.1 
 132       132   980     466.7 
 133       133   979     460.7 
 134       134   979     477.4 
 135       135   979     479.7 
 136       136   980     474.5 
 137       137   979     461.4 
 138       138   979     457.6 
 139       139   979     469.9 
 140       140   980     469.4 
 141       141   980     462.9 
 142       142   978     464.2 
 143       143   980     465.3 
 144       144   979     468.5 
 145       145   980     469.7 
 146       146   978     470.7 
 147       147   979     452.5 
 148       148   979     490.0 
 149       149   979     478.4 
 150       150   979     478.4 
 151       210  1000     436.7 
 152       270   997     415.6 
 153       330  1000     426.3 
 154       390   996     408.6 
 155       450   996     423.4 
 156       510   996     398.3 
 157       570   994     397.4 
 158       630   998     373.7 
 159       810   983     357.7 
 160       990   980     386.4 
 161      1170   985     346.9 
 162      1350   986     345.2 
 163      1530   981     316.7 
 164      2070   980     358.2 
 165      2691   973     338.5 
 166      3405   978     299.9 
 167      4226   978     306.4 
 168      5170   976     345.3 
 169      6256   975     286.2 
 170      7505   974     320.0 
 171      8941   977     270.9 
 172     10592   975     305.0 
 173     12491   973     314.1 
 174     14675   979     348.3 
 175     17187   975     314.9 
 176     20076   974     293.0 
 177     23398   977     305.0 
 178     27218   979     312.9 
 179     31611   980     300.3 
 180     36663   980     303.7 
 181     42473   977     281.5 
 182     49155   978     326.9 
 183     56839   980     308.8 
 184     65676   977     300.9 
 185     75839   981     300.9 
   1         1   156     423.1 
   2         2   817     489.2 
   3         3   953     514.2 
   4         4   969     511.5 
   5         5   972     525.7 
   6         6   973     521.1 
   7         7   973     528.6 
   8         8   977     513.8 
   9         9   974     563.7 
  10        10   975     580.5 
  11        11   976     557.7 
  12        12   977     570.8 
  13        13   977     608.3 
  14        14   977     619.9 
  15        15   977     577.3 
  16        16   978     598.8 
  17        17   980     592.2 
  18        18   977     599.1 
  19        19   978     590.3 
  20        20   979     575.1 
  21        21   980     565.3 
  22        22   979     584.3 
  23        23   979     552.6 
  24        24   979     548.5 
  25        25   980     545.2 
  26        26   980     545.6 
  27        27   978     564.1 
  28        28   980     526.5 
  29        29   980     526.9 
  30        30   980     552.7 
  31        31   980     550.3 
  32        32   980     544.2 
  33        33   980     531.3 
  34        34   981     524.3 
  35        35   981     556.6 
  36        36   980     551.0 
  37        37   981     539.2 
  38        38   980     541.2 
  39        39   981     536.9 
  40        40   980     562.2 
  41        41   981     543.3 
  42        42   980     535.0 
  43        43   982     550.6 
  44        44   981     553.5 
  45        45   980     553.1 
  46        46   981     539.9 
  47        47   982     543.1 
  48        48   982     553.3 
  49        49   981     542.6 
  50        50   981     538.9 
  51        51   980     541.5 
  52        52   983     548.3 
  53        53   981     551.8 
  54        54   981     538.6 
  55        55   981     538.9 
  56        56   982     554.7 
  57        57   982     557.7 
  58        58   981     547.1 
  59        59   981     552.8 
  60        60   980     547.6 
  61        61   983     552.7 
  62        62   981     559.6 
  63        63   981     534.1 
  64        64   981     550.5 
  65        65   982     553.3 
  66        66   982     559.1 
  67        67   981     547.7 
  68        68   981     534.5 
  69        69   981     544.7 
  70        70   983     565.6 
  71        71   980     541.2 
  72        72   981     527.7 
  73        73   981     561.0 
  74        74   982     542.4 
  75        75   981     546.7 
  76        76   980     530.3 
  77        77   980     534.4 
  78        78   982     552.3 
  79        79   982     578.4 
  80        80   980     532.0 
  81        81   981     532.4 
  82        82   980     541.5 
  83        83   982     550.6 
  84        84   980     564.6 
  85        85   980     540.5 
  86        86   980     547.6 
  87        87   982     552.6 
  88        88   981     559.0 
  89        89   980     543.5 
  90        90   981     545.7 
  91        91   981     550.1 
  92        92   982     550.6 
  93        93   980     558.8 
  94        94   980     533.3 
  95        95   980     558.2 
  96        96   982     574.7 
  97        97   981     567.4 
  98        98   980     552.4 
  99        99   980     553.1 
 100       100   980     568.4 
 101       101   981     576.6 
 102       102   980     548.0 
 103       103   980     541.2 
 104       104   980     561.9 
 105       105   982     586.2 
 106       106   980     545.2 
 107       107   980     548.6 
 108       108   980     568.7 
 109       109   981     569.5 
 110       110   980     558.5 
 111       111   980     534.0 
 112       112   980     566.0 
 113       113   980     573.8 
 114       114   981     569.8 
 115       115   980     554.4 
 116       116   980     558.5 
 117       117   980     563.6 
 118       118   980     573.1 
 119       119   980     556.8 
 120       120   979     566.6 
 121       121   980     553.1 
 122       122   980     571.8 
 123       123   981     568.5 
 124       124   979     547.5 
 125       125   980     558.5 
 126       126   980     575.2 
 127       127   981     548.4 
 128       128   980     546.3 
 129       129   979     558.4 
 130       130   979     577.5 
 131       131   980     571.4 
 132       132   980     557.8 
 133       133   979     549.9 
 134       134   979     569.3 
 135       135   979     572.4 
 136       136   980     559.2 
 137       137   979     560.1 
 138       138   979     536.3 
 139       139   979     587.3 
 140       140   980     548.3 
 141       141   980     567.3 
 142       142   978     560.0 
 143       143   980     570.7 
 144       144   979     577.1 
 145       145   980     555.1 
 146       146   978     543.3 
 147       147   979     573.4 
 148       148   979     566.9 
 149       149   979     567.9 
 150       150   979     567.9 
 151       210  1000     487.3 
 152       270   997     513.5 
 153       330  1000     498.0 
 154       390   996     507.7 
 155       450   996     532.5 
 156       510   996     553.2 
 157       570   994     561.0 
 158       630   998     534.4 
 159       810   983     492.7 
 160       990   980     568.7 
 161      1170   985     444.0 
 162      1350   986     505.4 
 163      1530   981     487.9 
 164      2070   980     456.8 
 165      2691   973     518.3 
 166      3405   978     495.9 
 167      4226   978     503.1 
 168      5170   976     483.9 
 169      6256   975     460.9 
 170      7505   974     483.9 
 171      8941   977     448.7 
 172     10592   975     420.2 
 173     12491   973     387.1 
 174     14675   979     365.0 
 175     17187   975     428.0 
 176     20076   974     435.7 
 177     23398   977     383.1 
 178     27218   979     380.3 
 179     31611   980     378.6 
 180     36663   980     388.1 
 181     42473   977     355.9 
 182     49155   978     391.3 
 183     56839   980     339.5 
 184     65676   977     313.5 
 185     75839   981     313.5 
