PC/104 FIRe Fluorometer 2.0.0
 4/ 8/2025     29655
LED Color:           blue
Gain:               1600
Sample Delay (msec):    10
Number Samples:   3
STF (usec):      150
STRP (#samples):       35
STRI (usec):       60
MTF (ms):        0
MTF (#samples):     0
MTRP (#samples):        0
MTRI (usec):      100
PQLen:     4
Ambient Light Source Power: Off
PAR (uMol/m^2/s):522.05
Comment:
Depth(m):   2.7
Temperature(C):  53.6
Battery(V):  15.95

         Time    EX   Fl-Yield 
DATA--------------------------
   0         0     0       0.0 
   1         1   156      53.4 
   2         2   817     255.4 
   3         3   953     286.8 
   4         4   969     302.7 
   5         5   972     296.3 
   6         6   973     313.1 
   7         7   973     284.7 
   8         8   977     320.7 
   9         9   974     311.1 
  10        10   975     337.8 
  11        11   976     329.6 
  12        12   977     333.3 
  13        13   977     337.1 
  14        14   977     333.7 
  15        15   977     356.9 
  16        16   978     347.6 
  17        17   980     376.5 
  18        18   977     370.9 
  19        19   978     357.9 
  20        20   979     367.7 
  21        21   980     381.0 
  22        22   979     380.7 
  23        23   979     392.6 
  24        24   979     390.2 
  25        25   980     383.3 
  26        26   980     400.0 
  27        27   978     386.2 
  28        28   980     430.6 
  29        29   980     391.5 
  30        30   980     412.6 
  31        31   980     411.2 
  32        32   980     433.3 
  33        33   980     407.8 
  34        34   981     423.7 
  35        35   981     435.6 
  36        36   980     420.7 
  37        37   981     439.0 
  38        38   980     430.6 
  39        39   981     438.7 
  40        40   980     435.0 
  41        41   981     440.4 
  42        42   980     444.2 
  43        43   982     415.1 
  44        44   981     443.4 
  45        45   980     428.9 
  46        46   981     439.7 
  47        47   982     436.9 
  48        48   982     433.8 
  49        49   981     443.1 
  50        50   981     435.9 
  51        51   980     422.8 
  52        52   983     453.7 
  53        53   981     417.6 
  54        54   981     418.6 
  55        55   981     430.2 
  56        56   982     430.8 
  57        57   982     458.6 
  58        58   981     451.6 
  59        59   981     434.9 
  60        60   980     440.1 
  61        61   983     412.7 
  62        62   981     430.2 
  63        63   981     438.3 
  64        64   981     452.3 
  65        65   982     446.0 
  66        66   982     457.6 
  67        67   981     422.0 
  68        68   981     465.5 
  69        69   981     451.2 
  70        70   983     460.2 
  71        71   980     434.0 
  72        72   981     449.2 
  73        73   981     444.4 
  74        74   982     444.0 
  75        75   981     438.7 
  76        76   980     473.5 
  77        77   980     460.2 
  78        78   982     428.0 
  79        79   982     451.5 
  80        80   980     474.1 
  81        81   981     454.0 
  82        82   980     477.2 
  83        83   982     474.9 
  84        84   980     493.9 
  85        85   980     449.7 
  86        86   980     465.3 
  87        87   982     467.4 
  88        88   981     463.1 
  89        89   980     459.5 
  90        90   981     456.7 
  91        91   981     459.7 
  92        92   982     448.7 
  93        93   980     484.4 
  94        94   980     458.5 
  95        95   980     462.2 
  96        96   982     469.8 
  97        97   981     456.0 
  98        98   980     466.7 
  99        99   980     468.4 
 100       100   980     460.5 
 101       101   981     444.1 
 102       102   980     452.0 
 103       103   980     458.5 
 104       104   980     474.1 
 105       105   982     470.5 
 106       106   980     454.8 
 107       107   980     453.1 
 108       108   980     463.9 
 109       109   981     459.1 
 110       110   980     461.2 
 111       111   980     484.0 
 112       112   980     455.8 
 113       113   980     462.9 
 114       114   981     454.3 
 115       115   980     481.0 
 116       116   980     459.2 
 117       117   980     457.1 
 118       118   980     463.9 
 119       119   980     483.3 
 120       120   979     477.4 
 121       121   980     462.9 
 122       122   980     452.0 
 123       123   981     473.3 
 124       124   979     464.1 
 125       125   980     469.7 
 126       126   980     455.8 
 127       127   981     462.8 
 128       128   980     484.7 
 129       129   979     469.9 
 130       130   979     458.6 
 131       131   980     461.2 
 132       132   980     478.9 
 133       133   979     492.3 
 134       134   979     478.0 
 135       135   979     480.1 
 136       136   980     445.6 
 137       137   979     451.8 
 138       138   979     476.7 
 139       139   979     457.3 
 140       140   980     464.3 
 141       141   980     472.8 
 142       142   978     465.6 
 143       143   980     457.1 
 144       144   979     456.2 
 145       145   980     463.3 
 146       146   978     464.6 
 147       147   979     461.4 
 148       148   979     456.9 
 149       149   979     458.6 
 150       150   979     458.6 
 151       210  1000     464.7 
 152       270   997     429.0 
 153       330  1000     417.0 
 154       390   996     396.3 
 155       450   996     399.3 
 156       510   996     405.3 
 157       570   994     408.8 
 158       630   998     380.4 
 159       810   983     348.3 
 160       990   980     330.3 
 161      1170   985     296.8 
 162      1350   986     337.7 
 163      1530   981     313.3 
 164      2070   980     305.8 
 165      2691   973     308.7 
 166      3405   978     339.8 
 167      4226   978     269.6 
 168      5170   976     302.3 
 169      6256   975     295.4 
 170      7505   974     291.6 
 171      8941   977     300.9 
 172     10592   975     272.8 
 173     12491   973     358.7 
 174     14675   979     281.6 
 175     17187   975     277.3 
 176     20076   974     294.7 
 177     23398   977     272.6 
 178     27218   979     269.0 
 179     31611   980     294.9 
 180     36663   980     273.8 
 181     42473   977     309.1 
 182     49155   978     327.9 
 183     56839   980     264.3 
 184     65676   977     343.2 
 185     75839   981     343.2 
   1         1   156     292.7 
   2         2   817     583.0 
   3         3   953     569.1 
   4         4   969     573.8 
   5         5   972     569.6 
   6         6   973     582.0 
   7         7   973     579.0 
   8         8   977     570.5 
   9         9   974     593.4 
  10        10   975     591.5 
  11        11   976     578.2 
  12        12   977     581.0 
  13        13   977     624.7 
  14        14   977     619.2 
  15        15   977     628.5 
  16        16   978     624.4 
  17        17   980     614.3 
  18        18   977     595.4 
  19        19   978     602.9 
  20        20   979     608.1 
  21        21   980     605.1 
  22        22   979     605.4 
  23        23   979     628.5 
  24        24   979     589.0 
  25        25   980     590.5 
  26        26   980     593.2 
  27        27   978     594.8 
  28        28   980     595.9 
  29        29   980     606.1 
  30        30   980     591.5 
  31        31   980     616.3 
  32        32   980     607.1 
  33        33   980     620.4 
  34        34   981     599.7 
  35        35   981     617.7 
  36        36   980     584.4 
  37        37   981     608.9 
  38        38   980     616.0 
  39        39   981     616.7 
  40        40   980     608.5 
  41        41   981     588.2 
  42        42   980     599.0 
  43        43   982     615.4 
  44        44   981     620.1 
  45        45   980     623.1 
  46        46   981     624.9 
  47        47   982     618.1 
  48        48   982     609.3 
  49        49   981     608.2 
  50        50   981     617.7 
  51        51   980     596.9 
  52        52   983     602.6 
  53        53   981     634.0 
  54        54   981     620.5 
  55        55   981     635.1 
  56        56   982     635.4 
  57        57   982     610.7 
  58        58   981     627.9 
  59        59   981     605.2 
  60        60   980     610.5 
  61        61   983     621.9 
  62        62   981     624.5 
  63        63   981     614.3 
  64        64   981     650.7 
  65        65   982     594.7 
  66        66   982     624.2 
  67        67   981     629.6 
  68        68   981     618.8 
  69        69   981     618.8 
  70        70   983     582.2 
  71        71   980     611.6 
  72        72   981     619.8 
  73        73   981     611.3 
  74        74   982     614.4 
  75        75   981     610.6 
  76        76   980     626.2 
  77        77   980     613.9 
  78        78   982     634.4 
  79        79   982     621.2 
  80        80   980     627.2 
  81        81   981     629.0 
  82        82   980     618.0 
  83        83   982     609.3 
  84        84   980     619.4 
  85        85   980     608.2 
  86        86   980     613.9 
  87        87   982     611.3 
  88        88   981     612.6 
  89        89   980     607.5 
  90        90   981     606.2 
  91        91   981     633.7 
  92        92   982     601.2 
  93        93   980     607.8 
  94        94   980     607.8 
  95        95   980     624.1 
  96        96   982     626.3 
  97        97   981     636.4 
  98        98   980     618.7 
  99        99   980     605.1 
 100       100   980     625.5 
 101       101   981     622.8 
 102       102   980     628.2 
 103       103   980     629.9 
 104       104   980     640.8 
 105       105   982     609.0 
 106       106   980     620.7 
 107       107   980     631.6 
 108       108   980     628.9 
 109       109   981     648.3 
 110       110   980     644.2 
 111       111   980     605.8 
 112       112   980     623.1 
 113       113   980     612.9 
 114       114   981     627.6 
 115       115   980     629.6 
 116       116   980     617.7 
 117       117   980     620.7 
 118       118   980     630.6 
 119       119   980     623.1 
 120       120   979     645.2 
 121       121   980     617.0 
 122       122   980     622.1 
 123       123   981     597.0 
 124       124   979     604.4 
 125       125   980     626.9 
 126       126   980     628.9 
 127       127   981     643.6 
 128       128   980     607.8 
 129       129   979     604.0 
 130       130   979     605.0 
 131       131   980     617.0 
 132       132   980     617.0 
 133       133   979     622.1 
 134       134   979     605.7 
 135       135   979     627.2 
 136       136   980     604.4 
 137       137   979     619.3 
 138       138   979     615.6 
 139       139   979     617.6 
 140       140   980     609.9 
 141       141   980     594.2 
 142       142   978     612.5 
 143       143   980     611.6 
 144       144   979     615.9 
 145       145   980     609.9 
 146       146   978     602.6 
 147       147   979     612.5 
 148       148   979     625.1 
 149       149   979     612.5 
 150       150   979     612.5 
 151       210  1000     630.3 
 152       270   997     652.6 
 153       330  1000     638.7 
 154       390   996     594.4 
 155       450   996     639.2 
 156       510   996     593.7 
 157       570   994     626.8 
 158       630   998     559.5 
 159       810   983     635.1 
 160       990   980     626.2 
 161      1170   985     591.2 
 162      1350   986     633.5 
 163      1530   981     615.0 
 164      2070   980     567.0 
 165      2691   973     601.2 
 166      3405   978     608.7 
 167      4226   978     627.5 
 168      5170   976     543.4 
 169      6256   975     566.8 
 170      7505   974     541.8 
 171      8941   977     593.0 
 172     10592   975     553.2 
 173     12491   973     586.2 
 174     14675   979     554.3 
 175     17187   975     525.1 
 176     20076   974     509.9 
 177     23398   977     479.7 
 178     27218   979     431.7 
 179     31611   980     496.6 
 180     36663   980     406.1 
 181     42473   977     448.3 
 182     49155   978     370.8 
 183     56839   980     423.1 
 184     65676   977     322.4 
 185     75839   981     322.4 
