PC/104 FIRe Fluorometer 2.0.0
 4/ 8/2025     27685
LED Color:           blue
Gain:               2000
Sample Delay (msec):    10
Number Samples:   3
STF (usec):      150
STRP (#samples):       35
STRI (usec):       60
MTF (ms):        0
MTF (#samples):     0
MTRP (#samples):        0
MTRI (usec):      100
PQLen:     4
Ambient Light Source Power: Off
PAR (uMol/m^2/s):441.00
Comment:
Depth(m):   3.5
Temperature(C):  44.7
Battery(V):  16.25

         Time    EX   Fl-Yield 
DATA--------------------------
   0         0     0       0.0 
   1         1   156     356.8 
   2         2   817     135.5 
   3         3   953     133.3 
   4         4   969     159.6 
   5         5   972     187.2 
   6         6   973     161.4 
   7         7   973     165.1 
   8         8   977     147.7 
   9         9   974     166.3 
  10        10   975     152.1 
  11        11   976     151.0 
  12        12   977     115.7 
  13        13   977     130.0 
  14        14   977     205.7 
  15        15   977     201.0 
  16        16   978      93.7 
  17        17   980     159.5 
  18        18   977     133.1 
  19        19   978     162.2 
  20        20   979     135.5 
  21        21   980     131.0 
  22        22   979     163.8 
  23        23   979     148.8 
  24        24   979     161.4 
  25        25   980     122.4 
  26        26   980     128.2 
  27        27   978     197.0 
  28        28   980     147.6 
  29        29   980     152.0 
  30        30   980     113.6 
  31        31   980     193.2 
  32        32   980     172.8 
  33        33   980     188.4 
  34        34   981     108.1 
  35        35   981     186.2 
  36        36   980     179.3 
  37        37   981     148.8 
  38        38   980     116.7 
  39        39   981     130.5 
  40        40   980     168.0 
  41        41   981      56.7 
  42        42   980     162.2 
  43        43   982     102.2 
  44        44   981     192.0 
  45        45   980     156.5 
  46        46   981     127.4 
  47        47   982     158.2 
  48        48   982     143.6 
  49        49   981     187.6 
  50        50   981     158.3 
  51        51   980     159.2 
  52        52   983     214.3 
  53        53   981     196.1 
  54        54   981     183.5 
  55        55   981     170.9 
  56        56   982     201.0 
  57        57   982     171.1 
  58        58   981     200.8 
  59        59   981     145.1 
  60        60   980     198.6 
  61        61   983     152.9 
  62        62   981     213.4 
  63        63   981     211.7 
  64        64   981     209.7 
  65        65   982     168.7 
  66        66   982     195.9 
  67        67   981     184.2 
  68        68   981     198.8 
  69        69   981     203.9 
  70        70   983     208.9 
  71        71   980     228.2 
  72        72   981     194.4 
  73        73   981     169.2 
  74        74   982     212.8 
  75        75   981     229.4 
  76        76   980     227.2 
  77        77   980     123.8 
  78        78   982     208.4 
  79        79   982     211.8 
  80        80   980     204.4 
  81        81   981     199.1 
  82        82   980     143.2 
  83        83   982     234.2 
  84        84   980     216.0 
  85        85   980     211.9 
  86        86   980     178.2 
  87        87   982     182.6 
  88        88   981     206.3 
  89        89   980     166.0 
  90        90   981     147.8 
  91        91   981     222.6 
  92        92   982     197.2 
  93        93   980     205.8 
  94        94   980     204.8 
  95        95   980     195.9 
  96        96   982     176.5 
  97        97   981     187.2 
  98        98   980     215.0 
  99        99   980     183.3 
 100       100   980     186.7 
 101       101   981     214.1 
 102       102   980     195.2 
 103       103   980     205.4 
 104       104   980     226.5 
 105       105   982     194.5 
 106       106   980     211.9 
 107       107   980     174.5 
 108       108   980     171.1 
 109       109   981     177.4 
 110       110   980     201.7 
 111       111   980     173.8 
 112       112   980     200.7 
 113       113   980     213.9 
 114       114   981     251.8 
 115       115   980     163.9 
 116       116   980     179.6 
 117       117   980     142.9 
 118       118   980     210.5 
 119       119   980     196.6 
 120       120   979     150.5 
 121       121   980     183.3 
 122       122   980     153.4 
 123       123   981     195.7 
 124       124   979     210.1 
 125       125   980     195.2 
 126       126   980     126.5 
 127       127   981     172.6 
 128       128   980     199.3 
 129       129   979     182.2 
 130       130   979     150.2 
 131       131   980     244.2 
 132       132   980     120.7 
 133       133   979     195.4 
 134       134   979     189.3 
 135       135   979     149.8 
 136       136   980     156.5 
 137       137   979     138.2 
 138       138   979     123.9 
 139       139   979     139.3 
 140       140   980     157.1 
 141       141   980     141.5 
 142       142   978     126.8 
 143       143   980     150.3 
 144       144   979     234.9 
 145       145   980     220.1 
 146       146   978     197.7 
 147       147   979     123.9 
 148       148   979     162.1 
 149       149   979     186.2 
 150       150   979     186.2 
 151       210  1000     145.7 
 152       270   997     158.1 
 153       330  1000     210.3 
 154       390   996     177.4 
 155       450   996     145.6 
 156       510   996      71.6 
 157       570   994     140.2 
 158       630   998     213.8 
 159       810   983     217.7 
 160       990   980     213.6 
 161      1170   985     133.7 
 162      1350   986     255.9 
 163      1530   981     124.4 
 164      2070   980     200.0 
 165      2691   973     122.3 
 166      3405   978     177.9 
 167      4226   978     144.5 
 168      5170   976     320.4 
 169      6256   975     185.6 
 170      7505   974      73.6 
 171      8941   977     213.6 
 172     10592   975     215.0 
 173     12491   973     169.9 
 174     14675   979     226.1 
 175     17187   975     227.4 
 176     20076   974     174.2 
 177     23398   977     143.3 
 178     27218   979     128.0 
 179     31611   980     129.9 
 180     36663   980      -9.5 
 181     42473   977     227.2 
 182     49155   978     237.6 
 183     56839   980      80.3 
 184     65676   977     112.2 
 185     75839   981     112.2 
   1         1   156     151.7 
   2         2   817     205.6 
   3         3   953     173.5 
   4         4   969     133.8 
   5         5   972     127.2 
   6         6   973     136.0 
   7         7   973     162.7 
   8         8   977     157.3 
   9         9   974     223.5 
  10        10   975     207.2 
  11        11   976     208.0 
  12        12   977     217.3 
  13        13   977     337.8 
  14        14   977     266.5 
  15        15   977     241.6 
  16        16   978     259.7 
  17        17   980     235.4 
  18        18   977     304.7 
  19        19   978     273.3 
  20        20   979     262.9 
  21        21   980     204.8 
  22        22   979     216.9 
  23        23   979     197.8 
  24        24   979     213.1 
  25        25   980     196.6 
  26        26   980     215.0 
  27        27   978     161.6 
  28        28   980     201.7 
  29        29   980     190.1 
  30        30   980     230.6 
  31        31   980     225.5 
  32        32   980     178.6 
  33        33   980     190.5 
  34        34   981     206.9 
  35        35   981     241.9 
  36        36   980     185.4 
  37        37   981     185.5 
  38        38   980     163.9 
  39        39   981     177.4 
  40        40   980     272.8 
  41        41   981     211.0 
  42        42   980     210.2 
  43        43   982     158.5 
  44        44   981     215.8 
  45        45   980     139.5 
  46        46   981     198.8 
  47        47   982     243.0 
  48        48   982     218.9 
  49        49   981     218.1 
  50        50   981     155.3 
  51        51   980     211.9 
  52        52   983     165.1 
  53        53   981     206.3 
  54        54   981     211.7 
  55        55   981     206.9 
  56        56   982     192.5 
  57        57   982     266.1 
  58        58   981     167.2 
  59        59   981     230.0 
  60        60   980     160.9 
  61        61   983     189.6 
  62        62   981     175.0 
  63        63   981     190.6 
  64        64   981     213.4 
  65        65   982     208.1 
  66        66   982     234.6 
  67        67   981     203.2 
  68        68   981     163.4 
  69        69   981     247.7 
  70        70   983     238.7 
  71        71   980     207.8 
  72        72   981     196.4 
  73        73   981     200.1 
  74        74   982     216.6 
  75        75   981     216.1 
  76        76   980     220.4 
  77        77   980     273.1 
  78        78   982     132.4 
  79        79   982     214.9 
  80        80   980     246.9 
  81        81   981     209.3 
  82        82   980     181.6 
  83        83   982     224.0 
  84        84   980     229.6 
  85        85   980     203.7 
  86        86   980     167.3 
  87        87   982     200.6 
  88        88   981     212.4 
  89        89   980     205.4 
  90        90   981     232.8 
  91        91   981     203.2 
  92        92   982     228.8 
  93        93   980     186.4 
  94        94   980     178.9 
  95        95   980     142.5 
  96        96   982     199.9 
  97        97   981     177.4 
  98        98   980     157.8 
  99        99   980     212.2 
 100       100   980     204.8 
 101       101   981     213.7 
 102       102   980     165.6 
 103       103   980     125.9 
 104       104   980     175.2 
 105       105   982     217.6 
 106       106   980     188.4 
 107       107   980     234.7 
 108       108   980     169.7 
 109       109   981     237.2 
 110       110   980     191.2 
 111       111   980     215.0 
 112       112   980     155.1 
 113       113   980     243.5 
 114       114   981     174.0 
 115       115   980     204.1 
 116       116   980     252.4 
 117       117   980     203.7 
 118       118   980     265.0 
 119       119   980     152.0 
 120       120   979     231.9 
 121       121   980     220.4 
 122       122   980     240.1 
 123       123   981     201.2 
 124       124   979     212.8 
 125       125   980     187.4 
 126       126   980     206.5 
 127       127   981     244.3 
 128       128   980     281.3 
 129       129   979     185.9 
 130       130   979     212.5 
 131       131   980     212.2 
 132       132   980     196.6 
 133       133   979     191.0 
 134       134   979     222.3 
 135       135   979     208.4 
 136       136   980     177.2 
 137       137   979     144.7 
 138       138   979     154.2 
 139       139   979     255.0 
 140       140   980     225.2 
 141       141   980     207.5 
 142       142   978     190.9 
 143       143   980     202.0 
 144       144   979     174.3 
 145       145   980     179.3 
 146       146   978     180.6 
 147       147   979     235.3 
 148       148   979     177.1 
 149       149   979     178.4 
 150       150   979     178.4 
 151       210  1000      60.3 
 152       270   997     150.5 
 153       330  1000     286.7 
 154       390   996     243.0 
 155       450   996     199.1 
 156       510   996     212.9 
 157       570   994     237.8 
 158       630   998     251.5 
 159       810   983     162.4 
 160       990   980     218.7 
 161      1170   985     254.1 
 162      1350   986     196.4 
 163      1530   981     276.9 
 164      2070   980     228.6 
 165      2691   973     207.6 
 166      3405   978     245.1 
 167      4226   978     306.7 
 168      5170   976     123.3 
 169      6256   975     133.0 
 170      7505   974     201.6 
 171      8941   977     160.4 
 172     10592   975     187.4 
 173     12491   973     308.3 
 174     14675   979     220.6 
 175     17187   975     100.9 
 176     20076   974      97.2 
 177     23398   977     152.2 
 178     27218   979     214.2 
 179     31611   980     222.8 
 180     36663   980     285.0 
 181     42473   977     303.7 
 182     49155   978     106.7 
 183     56839   980     170.7 
 184     65676   977     130.7 
 185     75839   981     130.7 
