PC/104 FIRe Fluorometer 2.0.0
 4/ 8/2025     28311
LED Color:           blue
Gain:               2000
Sample Delay (msec):    10
Number Samples:   3
STF (usec):      150
STRP (#samples):       35
STRI (usec):       60
MTF (ms):        0
MTF (#samples):     0
MTRP (#samples):        0
MTRI (usec):      100
PQLen:     4
Ambient Light Source Power: Off
PAR (uMol/m^2/s):441.00
Comment:
Depth(m):   4.0
Temperature(C):  47.9
Battery(V):  16.18

         Time    EX   Fl-Yield 
DATA--------------------------
   0         0     0       0.0 
   1         1   156     128.2 
   2         2   817     222.8 
   3         3   953     242.4 
   4         4   969     230.8 
   5         5   972     257.2 
   6         6   973     260.4 
   7         7   973     221.7 
   8         8   977     222.4 
   9         9   974     261.1 
  10        10   975     261.9 
  11        11   976     243.9 
  12        12   977     238.1 
  13        13   977     269.9 
  14        14   977     335.4 
  15        15   977     278.1 
  16        16   978     237.6 
  17        17   980     249.0 
  18        18   977     336.1 
  19        19   978     314.6 
  20        20   979     348.7 
  21        21   980     283.3 
  22        22   979     294.2 
  23        23   979     297.9 
  24        24   979     261.8 
  25        25   980     320.4 
  26        26   980     327.6 
  27        27   978     341.9 
  28        28   980     350.7 
  29        29   980     331.3 
  30        30   980     352.7 
  31        31   980     406.8 
  32        32   980     334.7 
  33        33   980     343.2 
  34        34   981     372.1 
  35        35   981     360.2 
  36        36   980     392.2 
  37        37   981     341.1 
  38        38   980     313.3 
  39        39   981     340.1 
  40        40   980     334.0 
  41        41   981     333.7 
  42        42   980     347.6 
  43        43   982     333.0 
  44        44   981     379.5 
  45        45   980     403.7 
  46        46   981     315.7 
  47        47   982     354.4 
  48        48   982     336.0 
  49        49   981     382.6 
  50        50   981     382.6 
  51        51   980     357.5 
  52        52   983     376.4 
  53        53   981     404.7 
  54        54   981     402.7 
  55        55   981     367.7 
  56        56   982     406.7 
  57        57   982     374.4 
  58        58   981     424.7 
  59        59   981     371.0 
  60        60   980     405.4 
  61        61   983     419.5 
  62        62   981     428.5 
  63        63   981     413.9 
  64        64   981     420.0 
  65        65   982     404.3 
  66        66   982     463.7 
  67        67   981     431.5 
  68        68   981     381.9 
  69        69   981     478.8 
  70        70   983     468.6 
  71        71   980     386.7 
  72        72   981     448.2 
  73        73   981     433.9 
  74        74   982     425.0 
  75        75   981     437.0 
  76        76   980     439.1 
  77        77   980     431.6 
  78        78   982     431.1 
  79        79   982     497.6 
  80        80   980     437.1 
  81        81   981     417.3 
  82        82   980     425.9 
  83        83   982     496.9 
  84        84   980     526.5 
  85        85   980     475.5 
  86        86   980     420.4 
  87        87   982     447.4 
  88        88   981     508.0 
  89        89   980     374.8 
  90        90   981     448.9 
  91        91   981     434.9 
  92        92   982     539.0 
  93        93   980     462.6 
  94        94   980     453.4 
  95        95   980     440.1 
  96        96   982     475.9 
  97        97   981     487.3 
  98        98   980     465.6 
  99        99   980     428.9 
 100       100   980     439.1 
 101       101   981     455.7 
 102       102   980     400.7 
 103       103   980     470.1 
 104       104   980     398.0 
 105       105   982     496.9 
 106       106   980     412.6 
 107       107   980     404.8 
 108       108   980     429.3 
 109       109   981     406.7 
 110       110   980     479.6 
 111       111   980     419.4 
 112       112   980     439.1 
 113       113   980     463.6 
 114       114   981     436.6 
 115       115   980     446.6 
 116       116   980     441.2 
 117       117   980     441.8 
 118       118   980     463.9 
 119       119   980     438.1 
 120       120   979     415.7 
 121       121   980     414.3 
 122       122   980     477.9 
 123       123   981     484.9 
 124       124   979     427.6 
 125       125   980     365.6 
 126       126   980     435.4 
 127       127   981     469.2 
 128       128   980     372.1 
 129       129   979     420.2 
 130       130   979     418.8 
 131       131   980     396.6 
 132       132   980     485.0 
 133       133   979     365.0 
 134       134   979     403.8 
 135       135   979     347.3 
 136       136   980     451.7 
 137       137   979     390.5 
 138       138   979     383.7 
 139       139   979     443.3 
 140       140   980     421.1 
 141       141   980     376.9 
 142       142   978     404.6 
 143       143   980     404.8 
 144       144   979     435.1 
 145       145   980     415.6 
 146       146   978     348.7 
 147       147   979     334.7 
 148       148   979     383.0 
 149       149   979     441.6 
 150       150   979     441.6 
 151       210  1000     533.7 
 152       270   997     403.5 
 153       330  1000     412.0 
 154       390   996     351.7 
 155       450   996     499.0 
 156       510   996     356.8 
 157       570   994     423.2 
 158       630   998     231.1 
 159       810   983     536.5 
 160       990   980     271.4 
 161      1170   985     332.7 
 162      1350   986     356.0 
 163      1530   981     418.3 
 164      2070   980     252.7 
 165      2691   973     330.9 
 166      3405   978     287.7 
 167      4226   978     297.9 
 168      5170   976     350.1 
 169      6256   975     119.3 
 170      7505   974     208.8 
 171      8941   977     151.5 
 172     10592   975     461.9 
 173     12491   973     317.9 
 174     14675   979     214.8 
 175     17187   975     164.8 
 176     20076   974     298.1 
 177     23398   977     285.6 
 178     27218   979     350.4 
 179     31611   980     424.1 
 180     36663   980     179.9 
 181     42473   977     330.3 
 182     49155   978     278.5 
 183     56839   980     468.4 
 184     65676   977     223.5 
 185     75839   981     223.5 
   1         1   156     371.8 
   2         2   817     545.9 
   3         3   953     581.0 
   4         4   969     474.4 
   5         5   972     520.9 
   6         6   973     522.8 
   7         7   973     562.5 
   8         8   977     548.6 
   9         9   974     528.1 
  10        10   975     510.8 
  11        11   976     591.9 
  12        12   977     619.6 
  13        13   977     661.9 
  14        14   977     615.1 
  15        15   977     623.0 
  16        16   978     657.5 
  17        17   980     672.8 
  18        18   977     588.2 
  19        19   978     609.7 
  20        20   979     655.8 
  21        21   980     610.9 
  22        22   979     526.7 
  23        23   979     547.5 
  24        24   979     611.5 
  25        25   980     605.8 
  26        26   980     538.4 
  27        27   978     519.4 
  28        28   980     551.7 
  29        29   980     592.2 
  30        30   980     571.8 
  31        31   980     553.1 
  32        32   980     536.7 
  33        33   980     602.4 
  34        34   981     576.3 
  35        35   981     572.5 
  36        36   980     571.4 
  37        37   981     588.9 
  38        38   980     611.6 
  39        39   981     571.9 
  40        40   980     562.6 
  41        41   981     593.3 
  42        42   980     635.4 
  43        43   982     604.9 
  44        44   981     550.5 
  45        45   980     565.3 
  46        46   981     596.3 
  47        47   982     594.4 
  48        48   982     532.6 
  49        49   981     598.4 
  50        50   981     599.7 
  51        51   980     649.3 
  52        52   983     599.5 
  53        53   981     578.7 
  54        54   981     577.3 
  55        55   981     618.8 
  56        56   982     556.7 
  57        57   982     615.1 
  58        58   981     549.4 
  59        59   981     632.0 
  60        60   980     631.6 
  61        61   983     559.2 
  62        62   981     544.7 
  63        63   981     606.2 
  64        64   981     685.4 
  65        65   982     617.1 
  66        66   982     633.7 
  67        67   981     603.8 
  68        68   981     647.6 
  69        69   981     620.5 
  70        70   983     577.8 
  71        71   980     587.8 
  72        72   981     691.1 
  73        73   981     660.2 
  74        74   982     583.8 
  75        75   981     646.3 
  76        76   980     618.4 
  77        77   980     611.9 
  78        78   982     601.5 
  79        79   982     572.6 
  80        80   980     530.6 
  81        81   981     626.9 
  82        82   980     636.4 
  83        83   982     590.0 
  84        84   980     549.3 
  85        85   980     603.1 
  86        86   980     676.2 
  87        87   982     578.8 
  88        88   981     529.4 
  89        89   980     563.9 
  90        90   981     615.4 
  91        91   981     551.8 
  92        92   982     532.9 
  93        93   980     547.3 
  94        94   980     588.1 
  95        95   980     650.7 
  96        96   982     612.4 
  97        97   981     550.5 
  98        98   980     559.5 
  99        99   980     620.1 
 100       100   980     564.3 
 101       101   981     596.3 
 102       102   980     544.9 
 103       103   980     604.8 
 104       104   980     620.1 
 105       105   982     560.4 
 106       106   980     533.7 
 107       107   980     640.1 
 108       108   980     614.6 
 109       109   981     551.1 
 110       110   980     565.6 
 111       111   980     622.4 
 112       112   980     605.8 
 113       113   980     578.2 
 114       114   981     528.7 
 115       115   980     567.0 
 116       116   980     650.3 
 117       117   980     548.6 
 118       118   980     518.0 
 119       119   980     531.3 
 120       120   979     536.6 
 121       121   980     576.5 
 122       122   980     552.7 
 123       123   981     530.1 
 124       124   979     565.2 
 125       125   980     578.6 
 126       126   980     613.9 
 127       127   981     557.9 
 128       128   980     590.5 
 129       129   979     611.5 
 130       130   979     550.6 
 131       131   980     578.9 
 132       132   980     510.9 
 133       133   979     553.6 
 134       134   979     622.7 
 135       135   979     585.3 
 136       136   980     583.0 
 137       137   979     601.3 
 138       138   979     619.7 
 139       139   979     581.5 
 140       140   980     567.0 
 141       141   980     570.4 
 142       142   978     635.7 
 143       143   980     629.6 
 144       144   979     565.9 
 145       145   980     548.0 
 146       146   978     601.6 
 147       147   979     649.3 
 148       148   979     617.6 
 149       149   979     645.2 
 150       150   979     645.2 
 151       210  1000     650.3 
 152       270   997     609.5 
 153       330  1000     513.3 
 154       390   996     614.1 
 155       450   996     674.4 
 156       510   996     536.1 
 157       570   994     500.3 
 158       630   998     621.6 
 159       810   983     522.9 
 160       990   980     482.7 
 161      1170   985     628.8 
 162      1350   986     684.6 
 163      1530   981     520.6 
 164      2070   980     596.6 
 165      2691   973     480.0 
 166      3405   978     561.0 
 167      4226   978     503.1 
 168      5170   976     558.1 
 169      6256   975     543.9 
 170      7505   974     560.2 
 171      8941   977     516.2 
 172     10592   975     626.3 
 173     12491   973     448.1 
 174     14675   979     561.1 
 175     17187   975     444.1 
 176     20076   974     500.3 
 177     23398   977     411.1 
 178     27218   979     387.1 
 179     31611   980     570.4 
 180     36663   980     411.2 
 181     42473   977     339.5 
 182     49155   978     247.1 
 183     56839   980     264.3 
 184     65676   977     458.9 
 185     75839   981     458.9 
