PC/104 FIRe Fluorometer 2.0.0
 4/ 8/2025     27900
LED Color:           blue
Gain:               1900
Sample Delay (msec):    10
Number Samples:   3
STF (usec):      150
STRP (#samples):       35
STRI (usec):       60
MTF (ms):        0
MTF (#samples):     0
MTRP (#samples):        0
MTRI (usec):      100
PQLen:     4
Ambient Light Source Power: Off
PAR (uMol/m^2/s):524.41
Comment:
Depth(m):   4.1
Temperature(C):  45.6
Battery(V):  16.22

         Time    EX   Fl-Yield 
DATA--------------------------
   0         0     0       0.0 
   1         1   156     106.8 
   2         2   817     150.1 
   3         3   953      90.9 
   4         4   969     141.0 
   5         5   972      88.1 
   6         6   973     173.0 
   7         7   973     139.1 
   8         8   977     147.0 
   9         9   974     115.0 
  10        10   975     153.5 
  11        11   976     147.2 
  12        12   977     142.3 
  13        13   977     189.7 
  14        14   977     171.6 
  15        15   977     149.1 
  16        16   978     119.6 
  17        17   980     121.1 
  18        18   977     147.4 
  19        19   978     168.0 
  20        20   979     139.6 
  21        21   980     132.3 
  22        22   979      86.8 
  23        23   979     141.0 
  24        24   979     151.9 
  25        25   980     124.1 
  26        26   980      89.1 
  27        27   978     168.7 
  28        28   980     117.7 
  29        29   980     142.5 
  30        30   980     120.4 
  31        31   980     124.8 
  32        32   980     160.9 
  33        33   980     132.7 
  34        34   981     121.6 
  35        35   981     172.3 
  36        36   980     162.9 
  37        37   981     173.6 
  38        38   980     137.8 
  39        39   981     139.3 
  40        40   980     145.9 
  41        41   981     178.0 
  42        42   980     123.8 
  43        43   982     112.7 
  44        44   981     150.9 
  45        45   980     165.3 
  46        46   981     145.8 
  47        47   982     164.0 
  48        48   982     145.6 
  49        49   981     152.6 
  50        50   981     177.0 
  51        51   980     119.4 
  52        52   983     161.7 
  53        53   981     185.2 
  54        54   981     208.6 
  55        55   981     143.4 
  56        56   982     188.7 
  57        57   982     187.7 
  58        58   981     191.0 
  59        59   981     208.3 
  60        60   980     184.7 
  61        61   983     169.9 
  62        62   981     179.7 
  63        63   981     176.4 
  64        64   981     173.6 
  65        65   982     197.6 
  66        66   982     179.9 
  67        67   981     179.1 
  68        68   981     194.0 
  69        69   981     220.5 
  70        70   983     208.2 
  71        71   980     236.4 
  72        72   981     213.7 
  73        73   981     223.9 
  74        74   982     180.6 
  75        75   981     214.7 
  76        76   980     225.2 
  77        77   980     207.1 
  78        78   982     220.0 
  79        79   982     199.3 
  80        80   980     234.7 
  81        81   981     244.6 
  82        82   980     188.1 
  83        83   982     206.0 
  84        84   980     222.8 
  85        85   980     242.5 
  86        86   980     209.2 
  87        87   982     246.4 
  88        88   981     186.9 
  89        89   980     210.2 
  90        90   981     197.8 
  91        91   981     195.0 
  92        92   982     196.5 
  93        93   980     236.7 
  94        94   980     197.6 
  95        95   980     171.4 
  96        96   982     230.5 
  97        97   981     211.7 
  98        98   980     206.8 
  99        99   980     185.0 
 100       100   980     208.2 
 101       101   981     212.4 
 102       102   980     236.7 
 103       103   980     219.0 
 104       104   980     197.3 
 105       105   982     175.5 
 106       106   980     216.0 
 107       107   980     214.6 
 108       108   980     174.1 
 109       109   981     215.8 
 110       110   980     189.8 
 111       111   980     224.5 
 112       112   980     160.9 
 113       113   980     182.7 
 114       114   981     158.0 
 115       115   980     182.7 
 116       116   980     217.0 
 117       117   980     153.4 
 118       118   980     199.0 
 119       119   980     203.7 
 120       120   979     227.1 
 121       121   980     178.9 
 122       122   980     184.7 
 123       123   981     152.2 
 124       124   979     249.6 
 125       125   980     192.2 
 126       126   980     208.2 
 127       127   981     161.1 
 128       128   980     213.3 
 129       129   979     223.0 
 130       130   979     185.6 
 131       131   980     190.8 
 132       132   980     200.3 
 133       133   979     246.2 
 134       134   979     195.4 
 135       135   979     151.2 
 136       136   980     171.1 
 137       137   979     177.4 
 138       138   979     157.0 
 139       139   979     175.3 
 140       140   980     242.2 
 141       141   980     179.3 
 142       142   978     197.0 
 143       143   980     146.6 
 144       144   979     164.1 
 145       145   980     197.6 
 146       146   978     177.6 
 147       147   979     160.7 
 148       148   979     142.3 
 149       149   979     176.7 
 150       150   979     176.7 
 151       210  1000     255.7 
 152       270   997     154.1 
 153       330  1000     159.0 
 154       390   996     147.3 
 155       450   996     243.3 
 156       510   996     258.7 
 157       570   994     187.5 
 158       630   998     173.0 
 159       810   983     207.9 
 160       990   980     196.3 
 161      1170   985     184.4 
 162      1350   986     162.9 
 163      1530   981     223.2 
 164      2070   980     162.6 
 165      2691   973     175.4 
 166      3405   978     247.8 
 167      4226   978     211.0 
 168      5170   976     220.6 
 169      6256   975     116.9 
 170      7505   974      99.2 
 171      8941   977     203.7 
 172     10592   975     229.4 
 173     12491   973     107.6 
 174     14675   979     236.6 
 175     17187   975     163.1 
 176     20076   974     225.9 
 177     23398   977     240.9 
 178     27218   979      84.4 
 179     31611   980     173.1 
 180     36663   980     145.6 
 181     42473   977     148.1 
 182     49155   978     164.3 
 183     56839   980     174.8 
 184     65676   977     170.6 
 185     75839   981     170.6 
   1         1   156       0.0 
   2         2   817     214.2 
   3         3   953     214.1 
   4         4   969     185.4 
   5         5   972     203.7 
   6         6   973     203.8 
   7         7   973     204.5 
   8         8   977     218.4 
   9         9   974     263.9 
  10        10   975     247.5 
  11        11   976     314.2 
  12        12   977     323.8 
  13        13   977     295.5 
  14        14   977     320.0 
  15        15   977     323.8 
  16        16   978     332.3 
  17        17   980     333.0 
  18        18   977     300.9 
  19        19   978     277.8 
  20        20   979     292.1 
  21        21   980     238.4 
  22        22   979     250.3 
  23        23   979     217.2 
  24        24   979     256.0 
  25        25   980     253.7 
  26        26   980     245.9 
  27        27   978     225.6 
  28        28   980     235.7 
  29        29   980     237.1 
  30        30   980     271.4 
  31        31   980     270.1 
  32        32   980     256.5 
  33        33   980     276.5 
  34        34   981     237.9 
  35        35   981     249.7 
  36        36   980     271.1 
  37        37   981     282.0 
  38        38   980     273.5 
  39        39   981     309.9 
  40        40   980     251.7 
  41        41   981     262.0 
  42        42   980     250.7 
  43        43   982     298.0 
  44        44   981     284.4 
  45        45   980     287.4 
  46        46   981     262.7 
  47        47   982     269.5 
  48        48   982     272.2 
  49        49   981     319.4 
  50        50   981     285.1 
  51        51   980     254.1 
  52        52   983     258.1 
  53        53   981     287.5 
  54        54   981     256.5 
  55        55   981     298.7 
  56        56   982     275.6 
  57        57   982     262.7 
  58        58   981     252.1 
  59        59   981     229.7 
  60        60   980     227.9 
  61        61   983     255.3 
  62        62   981     287.1 
  63        63   981     287.8 
  64        64   981     213.0 
  65        65   982     312.6 
  66        66   982     263.4 
  67        67   981     253.1 
  68        68   981     263.0 
  69        69   981     242.9 
  70        70   983     237.0 
  71        71   980     237.8 
  72        72   981     242.9 
  73        73   981     266.4 
  74        74   982     219.3 
  75        75   981     248.0 
  76        76   980     254.4 
  77        77   980     240.1 
  78        78   982     278.0 
  79        79   982     260.4 
  80        80   980     265.6 
  81        81   981     209.7 
  82        82   980     235.4 
  83        83   982     212.8 
  84        84   980     253.7 
  85        85   980     241.8 
  86        86   980     224.1 
  87        87   982     228.1 
  88        88   981     267.8 
  89        89   980     244.2 
  90        90   981     275.6 
  91        91   981     278.3 
  92        92   982     236.6 
  93        93   980     229.6 
  94        94   980     213.6 
  95        95   980     261.9 
  96        96   982     248.5 
  97        97   981     280.3 
  98        98   980     234.0 
  99        99   980     233.7 
 100       100   980     251.4 
 101       101   981     282.4 
 102       102   980     226.5 
 103       103   980     250.3 
 104       104   980     203.4 
 105       105   982     264.8 
 106       106   980     252.4 
 107       107   980     277.9 
 108       108   980     248.6 
 109       109   981     239.2 
 110       110   980     238.4 
 111       111   980     252.0 
 112       112   980     249.0 
 113       113   980     248.0 
 114       114   981     209.3 
 115       115   980     251.0 
 116       116   980     253.1 
 117       117   980     237.1 
 118       118   980     275.9 
 119       119   980     234.0 
 120       120   979     234.3 
 121       121   980     211.9 
 122       122   980     229.6 
 123       123   981     265.4 
 124       124   979     220.3 
 125       125   980     221.4 
 126       126   980     246.3 
 127       127   981     215.8 
 128       128   980     261.9 
 129       129   979     265.6 
 130       130   979     233.2 
 131       131   980     233.7 
 132       132   980     294.6 
 133       133   979     260.1 
 134       134   979     234.3 
 135       135   979     263.9 
 136       136   980     300.7 
 137       137   979     228.8 
 138       138   979     233.2 
 139       139   979     254.3 
 140       140   980     218.7 
 141       141   980     225.2 
 142       142   978     237.6 
 143       143   980     227.9 
 144       144   979     257.4 
 145       145   980     263.3 
 146       146   978     208.9 
 147       147   979     250.9 
 148       148   979     264.2 
 149       149   979     188.3 
 150       150   979     188.3 
 151       210  1000     239.7 
 152       270   997     325.3 
 153       330  1000     219.0 
 154       390   996     227.6 
 155       450   996     195.1 
 156       510   996     245.3 
 157       570   994     213.6 
 158       630   998     248.5 
 159       810   983     208.5 
 160       990   980     229.3 
 161      1170   985     247.4 
 162      1350   986     235.6 
 163      1530   981     263.7 
 164      2070   980     237.1 
 165      2691   973     231.2 
 166      3405   978     258.7 
 167      4226   978     275.1 
 168      5170   976     244.2 
 169      6256   975     237.6 
 170      7505   974     285.8 
 171      8941   977     295.1 
 172     10592   975     197.3 
 173     12491   973     248.7 
 174     14675   979     216.5 
 175     17187   975     288.5 
 176     20076   974     186.5 
 177     23398   977     213.2 
 178     27218   979     205.3 
 179     31611   980     205.4 
 180     36663   980     196.3 
 181     42473   977     290.3 
 182     49155   978     217.5 
 183     56839   980      64.3 
 184     65676   977      95.5 
 185     75839   981      95.5 
