PC/104 FIRe Fluorometer 2.0.0
 4/ 8/2025     40328
LED Color:           blue
Gain:               1800
Sample Delay (msec):    10
Number Samples:   3
STF (usec):      150
STRP (#samples):       35
STRI (usec):       60
MTF (ms):        0
MTF (#samples):     0
MTRP (#samples):        0
MTRI (usec):      100
PQLen:     4
Ambient Light Source Power: Off
PAR (uMol/m^2/s):719.11
Comment:
Depth(m):  -2.0
Temperature(C):  76.2
Battery(V):  14.01

         Time    EX   Fl-Yield 
DATA--------------------------
   0         0     0       0.0 
   1         1   156     245.7 
   2         2   817     202.0 
   3         3   953     277.7 
   4         4   969     295.5 
   5         5   972     309.0 
   6         6   973     259.3 
   7         7   973     285.0 
   8         8   977     298.2 
   9         9   974     309.7 
  10        10   975     294.0 
  11        11   976     277.7 
  12        12   977     312.5 
  13        13   977     317.0 
  14        14   977     287.6 
  15        15   977     304.7 
  16        16   978     293.5 
  17        17   980     326.5 
  18        18   977     312.5 
  19        19   978     306.4 
  20        20   979     315.3 
  21        21   980     323.1 
  22        22   979     322.4 
  23        23   979     306.4 
  24        24   979     332.0 
  25        25   980     325.5 
  26        26   980     374.1 
  27        27   978     302.7 
  28        28   980     314.3 
  29        29   980     337.1 
  30        30   980     379.9 
  31        31   980     354.4 
  32        32   980     334.7 
  33        33   980     344.6 
  34        34   981     375.1 
  35        35   981     372.7 
  36        36   980     367.0 
  37        37   981     344.2 
  38        38   980     367.0 
  39        39   981     370.0 
  40        40   980     399.0 
  41        41   981     341.5 
  42        42   980     357.1 
  43        43   982     382.9 
  44        44   981     387.7 
  45        45   980     344.9 
  46        46   981     358.5 
  47        47   982     366.9 
  48        48   982     392.7 
  49        49   981     360.5 
  50        50   981     358.8 
  51        51   980     355.8 
  52        52   983     377.4 
  53        53   981     391.4 
  54        54   981     372.1 
  55        55   981     368.3 
  56        56   982     395.1 
  57        57   982     398.2 
  58        58   981     366.3 
  59        59   981     385.7 
  60        60   980     407.8 
  61        61   983     397.1 
  62        62   981     389.4 
  63        63   981     386.0 
  64        64   981     395.2 
  65        65   982     428.7 
  66        66   982     408.7 
  67        67   981     378.2 
  68        68   981     396.5 
  69        69   981     419.3 
  70        70   983     435.7 
  71        71   980     383.0 
  72        72   981     387.4 
  73        73   981     411.5 
  74        74   982     415.1 
  75        75   981     395.2 
  76        76   980     405.1 
  77        77   980     434.7 
  78        78   982     433.1 
  79        79   982     403.6 
  80        80   980     389.1 
  81        81   981     402.7 
  82        82   980     437.8 
  83        83   982     442.6 
  84        84   980     422.1 
  85        85   980     409.5 
  86        86   980     423.5 
  87        87   982     450.4 
  88        88   981     410.5 
  89        89   980     407.5 
  90        90   981     408.1 
  91        91   981     438.3 
  92        92   982     411.4 
  93        93   980     412.9 
  94        94   980     410.5 
  95        95   980     410.5 
  96        96   982     413.8 
  97        97   981     398.6 
  98        98   980     406.8 
  99        99   980     428.2 
 100       100   980     430.6 
 101       101   981     396.5 
 102       102   980     419.0 
 103       103   980     400.0 
 104       104   980     427.9 
 105       105   982     394.8 
 106       106   980     396.3 
 107       107   980     394.9 
 108       108   980     431.3 
 109       109   981     447.5 
 110       110   980     403.1 
 111       111   980     395.2 
 112       112   980     423.5 
 113       113   980     444.9 
 114       114   981     388.7 
 115       115   980     383.7 
 116       116   980     378.9 
 117       117   980     407.5 
 118       118   980     434.4 
 119       119   980     395.2 
 120       120   979     369.8 
 121       121   980     392.2 
 122       122   980     428.9 
 123       123   981     427.8 
 124       124   979     408.6 
 125       125   980     383.7 
 126       126   980     431.3 
 127       127   981     404.0 
 128       128   980     367.3 
 129       129   979     394.6 
 130       130   979     420.2 
 131       131   980     413.3 
 132       132   980     406.8 
 133       133   979     371.5 
 134       134   979     401.8 
 135       135   979     410.6 
 136       136   980     399.3 
 137       137   979     389.2 
 138       138   979     396.3 
 139       139   979     442.3 
 140       140   980     424.5 
 141       141   980     394.6 
 142       142   978     396.7 
 143       143   980     427.9 
 144       144   979     417.1 
 145       145   980     408.8 
 146       146   978     393.0 
 147       147   979     428.7 
 148       148   979     446.0 
 149       149   979     424.2 
 150       150   979     424.2 
 151       210  1000     464.0 
 152       270   997     358.1 
 153       330  1000     381.7 
 154       390   996     402.6 
 155       450   996     432.1 
 156       510   996     372.2 
 157       570   994     350.4 
 158       630   998     318.3 
 159       810   983     324.2 
 160       990   980     321.4 
 161      1170   985     295.1 
 162      1350   986     387.8 
 163      1530   981     310.9 
 164      2070   980     233.0 
 165      2691   973     311.8 
 166      3405   978     279.8 
 167      4226   978     269.6 
 168      5170   976     235.7 
 169      6256   975     359.3 
 170      7505   974     295.0 
 171      8941   977     327.9 
 172     10592   975     266.3 
 173     12491   973     323.7 
 174     14675   979     265.6 
 175     17187   975     317.3 
 176     20076   974     284.4 
 177     23398   977     304.7 
 178     27218   979     355.1 
 179     31611   980     280.3 
 180     36663   980     279.3 
 181     42473   977     206.8 
 182     49155   978     319.0 
 183     56839   980     340.1 
 184     65676   977     300.6 
 185     75839   981     300.6 
   1         1   156     596.2 
   2         2   817     494.9 
   3         3   953     459.3 
   4         4   969     461.3 
   5         5   972     498.6 
   6         6   973     511.5 
   7         7   973     502.9 
   8         8   977     491.3 
   9         9   974     521.2 
  10        10   975     530.6 
  11        11   976     543.7 
  12        12   977     546.6 
  13        13   977     524.1 
  14        14   977     549.3 
  15        15   977     559.2 
  16        16   978     556.9 
  17        17   980     541.5 
  18        18   977     571.8 
  19        19   978     569.2 
  20        20   979     552.9 
  21        21   980     542.2 
  22        22   979     544.1 
  23        23   979     539.0 
  24        24   979     543.8 
  25        25   980     526.2 
  26        26   980     506.1 
  27        27   978     496.3 
  28        28   980     570.7 
  29        29   980     544.6 
  30        30   980     524.8 
  31        31   980     508.8 
  32        32   980     527.2 
  33        33   980     521.4 
  34        34   981     521.6 
  35        35   981     525.7 
  36        36   980     552.7 
  37        37   981     538.6 
  38        38   980     574.1 
  39        39   981     536.2 
  40        40   980     580.3 
  41        41   981     596.7 
  42        42   980     574.1 
  43        43   982     557.4 
  44        44   981     529.1 
  45        45   980     553.1 
  46        46   981     557.3 
  47        47   982     574.7 
  48        48   982     539.0 
  49        49   981     579.0 
  50        50   981     576.6 
  51        51   980     551.0 
  52        52   983     541.9 
  53        53   981     582.4 
  54        54   981     565.1 
  55        55   981     569.1 
  56        56   982     565.5 
  57        57   982     570.3 
  58        58   981     581.0 
  59        59   981     580.0 
  60        60   980     554.8 
  61        61   983     565.6 
  62        62   981     546.4 
  63        63   981     547.1 
  64        64   981     565.7 
  65        65   982     545.5 
  66        66   982     553.3 
  67        67   981     585.5 
  68        68   981     548.1 
  69        69   981     543.7 
  70        70   983     566.6 
  71        71   980     576.9 
  72        72   981     555.6 
  73        73   981     531.1 
  74        74   982     535.3 
  75        75   981     567.1 
  76        76   980     575.9 
  77        77   980     559.5 
  78        78   982     526.1 
  79        79   982     533.6 
  80        80   980     544.2 
  81        81   981     557.9 
  82        82   980     523.1 
  83        83   982     508.5 
  84        84   980     504.4 
  85        85   980     533.7 
  86        86   980     526.5 
  87        87   982     523.1 
  88        88   981     538.9 
  89        89   980     548.3 
  90        90   981     554.9 
  91        91   981     494.7 
  92        92   982     546.5 
  93        93   980     539.1 
  94        94   980     538.8 
  95        95   980     503.4 
  96        96   982     500.7 
  97        97   981     521.2 
  98        98   980     521.4 
  99        99   980     517.3 
 100       100   980     506.8 
 101       101   981     533.5 
 102       102   980     540.5 
 103       103   980     508.5 
 104       104   980     535.7 
 105       105   982     520.7 
 106       106   980     540.5 
 107       107   980     511.6 
 108       108   980     523.8 
 109       109   981     499.8 
 110       110   980     522.4 
 111       111   980     571.4 
 112       112   980     501.4 
 113       113   980     499.3 
 114       114   981     516.1 
 115       115   980     520.1 
 116       116   980     509.5 
 117       117   980     503.1 
 118       118   980     520.7 
 119       119   980     512.6 
 120       120   979     517.9 
 121       121   980     513.3 
 122       122   980     507.5 
 123       123   981     541.3 
 124       124   979     538.0 
 125       125   980     489.1 
 126       126   980     522.8 
 127       127   981     522.6 
 128       128   980     540.8 
 129       129   979     520.9 
 130       130   979     488.6 
 131       131   980     526.5 
 132       132   980     536.1 
 133       133   979     535.2 
 134       134   979     561.5 
 135       135   979     545.5 
 136       136   980     549.3 
 137       137   979     556.3 
 138       138   979     530.8 
 139       139   979     525.0 
 140       140   980     534.4 
 141       141   980     557.8 
 142       142   978     536.5 
 143       143   980     510.2 
 144       144   979     551.9 
 145       145   980     556.5 
 146       146   978     577.0 
 147       147   979     543.4 
 148       148   979     538.0 
 149       149   979     509.0 
 150       150   979     509.0 
 151       210  1000     507.0 
 152       270   997     572.4 
 153       330  1000     503.3 
 154       390   996     517.4 
 155       450   996     498.3 
 156       510   996     532.8 
 157       570   994     517.4 
 158       630   998     552.8 
 159       810   983     535.1 
 160       990   980     472.8 
 161      1170   985     588.2 
 162      1350   986     498.0 
 163      1530   981     533.1 
 164      2070   980     540.5 
 165      2691   973     547.1 
 166      3405   978     519.4 
 167      4226   978     446.1 
 168      5170   976     491.5 
 169      6256   975     454.0 
 170      7505   974     454.5 
 171      8941   977     476.6 
 172     10592   975     567.9 
 173     12491   973     487.5 
 174     14675   979     462.4 
 175     17187   975     464.6 
 176     20076   974     430.5 
 177     23398   977     439.4 
 178     27218   979     498.8 
 179     31611   980     459.5 
 180     36663   980     417.7 
 181     42473   977     368.1 
 182     49155   978     353.1 
 183     56839   980     372.4 
 184     65676   977     430.6 
 185     75839   981     430.6 
