PC/104 FIRe Fluorometer 2.0.0
 4/ 8/2025     29669
LED Color:           blue
Gain:               1500
Sample Delay (msec):    10
Number Samples:   3
STF (usec):      150
STRP (#samples):       35
STRI (usec):       60
MTF (ms):        0
MTF (#samples):     0
MTRP (#samples):        0
MTRI (usec):      100
PQLen:     4
Ambient Light Source Power: Off
PAR (uMol/m^2/s):668.52
Comment:
Depth(m):   2.5
Temperature(C):  53.8
Battery(V):  15.94

         Time    EX   Fl-Yield 
DATA--------------------------
   0         0     0       0.0 
   1         1   156     393.2 
   2         2   817     291.7 
   3         3   953     292.8 
   4         4   969     313.4 
   5         5   972     318.2 
   6         6   973     326.8 
   7         7   973     332.3 
   8         8   977     333.7 
   9         9   974     350.8 
  10        10   975     364.4 
  11        11   976     349.4 
  12        12   977     346.6 
  13        13   977     369.8 
  14        14   977     393.4 
  15        15   977     385.9 
  16        16   978     370.5 
  17        17   980     384.4 
  18        18   977     402.9 
  19        19   978     406.6 
  20        20   979     399.7 
  21        21   980     403.1 
  22        22   979     408.6 
  23        23   979     439.9 
  24        24   979     407.2 
  25        25   980     406.1 
  26        26   980     411.9 
  27        27   978     431.2 
  28        28   980     442.5 
  29        29   980     436.7 
  30        30   980     422.1 
  31        31   980     446.9 
  32        32   980     446.9 
  33        33   980     442.2 
  34        34   981     447.8 
  35        35   981     451.2 
  36        36   980     457.8 
  37        37   981     478.8 
  38        38   980     460.9 
  39        39   981     470.3 
  40        40   980     471.4 
  41        41   981     480.5 
  42        42   980     473.1 
  43        43   982     484.4 
  44        44   981     488.6 
  45        45   980     506.5 
  46        46   981     491.3 
  47        47   982     469.1 
  48        48   982     469.5 
  49        49   981     500.5 
  50        50   981     504.9 
  51        51   980     495.6 
  52        52   983     474.4 
  53        53   981     485.6 
  54        54   981     508.3 
  55        55   981     501.9 
  56        56   982     478.3 
  57        57   982     490.2 
  58        58   981     512.1 
  59        59   981     518.5 
  60        60   980     505.4 
  61        61   983     490.7 
  62        62   981     518.5 
  63        63   981     512.1 
  64        64   981     497.5 
  65        65   982     494.2 
  66        66   982     515.3 
  67        67   981     517.2 
  68        68   981     536.9 
  69        69   981     510.7 
  70        70   983     503.2 
  71        71   980     502.0 
  72        72   981     521.2 
  73        73   981     516.1 
  74        74   982     499.3 
  75        75   981     503.6 
  76        76   980     529.6 
  77        77   980     525.5 
  78        78   982     522.1 
  79        79   982     507.1 
  80        80   980     523.1 
  81        81   981     531.1 
  82        82   980     530.6 
  83        83   982     509.2 
  84        84   980     526.9 
  85        85   980     545.9 
  86        86   980     539.1 
  87        87   982     511.5 
  88        88   981     508.7 
  89        89   980     527.2 
  90        90   981     534.5 
  91        91   981     531.4 
  92        92   982     510.5 
  93        93   980     512.2 
  94        94   980     527.6 
  95        95   980     539.8 
  96        96   982     517.7 
  97        97   981     508.0 
  98        98   980     498.3 
  99        99   980     524.8 
 100       100   980     498.6 
 101       101   981     500.5 
 102       102   980     505.4 
 103       103   980     529.3 
 104       104   980     505.1 
 105       105   982     496.9 
 106       106   980     510.9 
 107       107   980     519.7 
 108       108   980     510.9 
 109       109   981     504.2 
 110       110   980     507.5 
 111       111   980     503.4 
 112       112   980     543.5 
 113       113   980     520.4 
 114       114   981     485.2 
 115       115   980     514.6 
 116       116   980     509.5 
 117       117   980     513.6 
 118       118   980     497.3 
 119       119   980     505.8 
 120       120   979     503.9 
 121       121   980     512.9 
 122       122   980     516.7 
 123       123   981     476.4 
 124       124   979     488.3 
 125       125   980     525.5 
 126       126   980     526.2 
 127       127   981     496.4 
 128       128   980     488.4 
 129       129   979     506.3 
 130       130   979     503.2 
 131       131   980     493.2 
 132       132   980     506.1 
 133       133   979     505.3 
 134       134   979     505.3 
 135       135   979     520.6 
 136       136   980     510.2 
 137       137   979     493.0 
 138       138   979     511.1 
 139       139   979     523.3 
 140       140   980     505.1 
 141       141   980     495.2 
 142       142   978     498.6 
 143       143   980     519.0 
 144       144   979     529.1 
 145       145   980     486.1 
 146       146   978     492.2 
 147       147   979     499.8 
 148       148   979     518.6 
 149       149   979     499.1 
 150       150   979     499.1 
 151       210  1000     526.3 
 152       270   997     489.5 
 153       330  1000     452.0 
 154       390   996     427.4 
 155       450   996     485.3 
 156       510   996     372.5 
 157       570   994     469.5 
 158       630   998     361.4 
 159       810   983     435.4 
 160       990   980     416.0 
 161      1170   985     346.9 
 162      1350   986     391.1 
 163      1530   981     384.0 
 164      2070   980     348.3 
 165      2691   973     332.3 
 166      3405   978     307.8 
 167      4226   978     324.1 
 168      5170   976     364.8 
 169      6256   975     272.1 
 170      7505   974     314.5 
 171      8941   977     355.5 
 172     10592   975     328.2 
 173     12491   973     347.0 
 174     14675   979     279.5 
 175     17187   975     302.9 
 176     20076   974     363.1 
 177     23398   977     292.1 
 178     27218   979     280.2 
 179     31611   980     351.0 
 180     36663   980     283.3 
 181     42473   977     297.9 
 182     49155   978     340.1 
 183     56839   980     303.7 
 184     65676   977     308.1 
 185     75839   981     308.1 
   1         1   156     523.5 
   2         2   817     659.3 
   3         3   953     662.5 
   4         4   969     646.0 
   5         5   972     646.4 
   6         6   973     666.3 
   7         7   973     659.5 
   8         8   977     643.8 
   9         9   974     659.5 
  10        10   975     690.9 
  11        11   976     678.6 
  12        12   977     691.9 
  13        13   977     677.6 
  14        14   977     696.0 
  15        15   977     702.1 
  16        16   978     689.8 
  17        17   980     667.3 
  18        18   977     686.5 
  19        19   978     696.0 
  20        20   979     688.8 
  21        21   980     682.3 
  22        22   979     655.1 
  23        23   979     661.6 
  24        24   979     689.8 
  25        25   980     689.1 
  26        26   980     654.1 
  27        27   978     658.8 
  28        28   980     671.1 
  29        29   980     667.7 
  30        30   980     665.6 
  31        31   980     660.2 
  32        32   980     650.3 
  33        33   980     679.3 
  34        34   981     661.9 
  35        35   981     655.1 
  36        36   980     659.9 
  37        37   981     669.7 
  38        38   980     671.8 
  39        39   981     668.7 
  40        40   980     667.0 
  41        41   981     681.6 
  42        42   980     691.8 
  43        43   982     671.8 
  44        44   981     663.9 
  45        45   980     654.4 
  46        46   981     675.8 
  47        47   982     692.5 
  48        48   982     661.2 
  49        49   981     659.9 
  50        50   981     677.2 
  51        51   980     692.9 
  52        52   983     676.2 
  53        53   981     657.5 
  54        54   981     660.6 
  55        55   981     680.9 
  56        56   982     679.2 
  57        57   982     670.1 
  58        58   981     676.5 
  59        59   981     673.5 
  60        60   980     674.1 
  61        61   983     671.1 
  62        62   981     670.7 
  63        63   981     670.7 
  64        64   981     688.1 
  65        65   982     677.5 
  66        66   982     663.3 
  67        67   981     670.7 
  68        68   981     680.9 
  69        69   981     682.3 
  70        70   983     659.2 
  71        71   980     661.6 
  72        72   981     678.2 
  73        73   981     672.4 
  74        74   982     687.4 
  75        75   981     671.4 
  76        76   980     662.9 
  77        77   980     688.8 
  78        78   982     685.7 
  79        79   982     673.8 
  80        80   980     668.7 
  81        81   981     677.9 
  82        82   980     698.6 
  83        83   982     683.0 
  84        84   980     682.3 
  85        85   980     661.9 
  86        86   980     685.4 
  87        87   982     686.7 
  88        88   981     682.3 
  89        89   980     669.7 
  90        90   981     679.2 
  91        91   981     697.2 
  92        92   982     689.4 
  93        93   980     685.7 
  94        94   980     687.8 
  95        95   980     720.4 
  96        96   982     699.3 
  97        97   981     692.8 
  98        98   980     681.6 
  99        99   980     696.9 
 100       100   980     715.6 
 101       101   981     695.9 
 102       102   980     696.9 
 103       103   980     685.0 
 104       104   980     697.6 
 105       105   982     701.6 
 106       106   980     704.1 
 107       107   980     687.4 
 108       108   980     699.7 
 109       109   981     718.3 
 110       110   980     724.1 
 111       111   980     710.2 
 112       112   980     693.2 
 113       113   980     702.7 
 114       114   981     717.3 
 115       115   980     708.5 
 116       116   980     693.9 
 117       117   980     710.5 
 118       118   980     720.1 
 119       119   980     704.4 
 120       120   979     718.1 
 121       121   980     694.2 
 122       122   980     713.3 
 123       123   981     709.8 
 124       124   979     704.5 
 125       125   980     691.8 
 126       126   980     720.1 
 127       127   981     724.1 
 128       128   980     716.7 
 129       129   979     689.1 
 130       130   979     708.9 
 131       131   980     722.4 
 132       132   980     713.6 
 133       133   979     709.2 
 134       134   979     686.4 
 135       135   979     710.2 
 136       136   980     694.2 
 137       137   979     693.6 
 138       138   979     695.3 
 139       139   979     709.2 
 140       140   980     713.6 
 141       141   980     712.6 
 142       142   978     690.5 
 143       143   980     671.8 
 144       144   979     714.0 
 145       145   980     705.4 
 146       146   978     708.6 
 147       147   979     681.3 
 148       148   979     700.7 
 149       149   979     698.3 
 150       150   979     698.3 
 151       210  1000     664.3 
 152       270   997     647.9 
 153       330  1000     741.7 
 154       390   996     649.3 
 155       450   996     738.6 
 156       510   996     683.1 
 157       570   994     700.2 
 158       630   998     684.4 
 159       810   983     657.9 
 160       990   980     741.2 
 161      1170   985     636.2 
 162      1350   986     712.3 
 163      1530   981     703.0 
 164      2070   980     681.6 
 165      2691   973     634.5 
 166      3405   978     603.6 
 167      4226   978     647.2 
 168      5170   976     606.6 
 169      6256   975     683.4 
 170      7505   974     684.1 
 171      8941   977     643.5 
 172     10592   975     611.6 
 173     12491   973     615.3 
 174     14675   979     534.2 
 175     17187   975     573.0 
 176     20076   974     539.0 
 177     23398   977     596.4 
 178     27218   979     487.2 
 179     31611   980     531.3 
 180     36663   980     490.8 
 181     42473   977     519.6 
 182     49155   978     447.5 
 183     56839   980     475.9 
 184     65676   977     502.2 
 185     75839   981     502.2 
