PC/104 FIRe Fluorometer 2.0.0
 4/ 8/2025     33405
LED Color:           blue
Gain:               1600
Sample Delay (msec):    10
Number Samples:   3
STF (usec):      150
STRP (#samples):       35
STRI (usec):       60
MTF (ms):        0
MTF (#samples):     0
MTRP (#samples):        0
MTRI (usec):      100
PQLen:     4
Ambient Light Source Power: Off
PAR (uMol/m^2/s):436.61
Comment:
Depth(m):   1.9
Temperature(C):  67.0
Battery(V):  15.11

         Time    EX   Fl-Yield 
DATA--------------------------
   0         0     0       0.0 
   1         1   156     145.3 
   2         2   817     262.7 
   3         3   953     297.3 
   4         4   969     301.7 
   5         5   972     314.8 
   6         6   973     340.9 
   7         7   973     333.3 
   8         8   977     349.0 
   9         9   974     334.7 
  10        10   975     343.6 
  11        11   976     358.3 
  12        12   977     363.7 
  13        13   977     370.5 
  14        14   977     361.0 
  15        15   977     397.8 
  16        16   978     371.8 
  17        17   980     386.7 
  18        18   977     373.6 
  19        19   978     394.3 
  20        20   979     390.5 
  21        21   980     401.0 
  22        22   979     408.2 
  23        23   979     399.0 
  24        24   979     389.2 
  25        25   980     408.8 
  26        26   980     412.9 
  27        27   978     415.5 
  28        28   980     407.8 
  29        29   980     405.4 
  30        30   980     406.5 
  31        31   980     410.5 
  32        32   980     414.3 
  33        33   980     425.5 
  34        34   981     409.1 
  35        35   981     401.0 
  36        36   980     412.6 
  37        37   981     427.1 
  38        38   980     422.8 
  39        39   981     415.6 
  40        40   980     414.3 
  41        41   981     395.2 
  42        42   980     426.9 
  43        43   982     439.6 
  44        44   981     424.7 
  45        45   980     407.1 
  46        46   981     425.4 
  47        47   982     439.6 
  48        48   982     437.9 
  49        49   981     430.9 
  50        50   981     419.0 
  51        51   980     455.4 
  52        52   983     410.0 
  53        53   981     416.2 
  54        54   981     389.4 
  55        55   981     427.1 
  56        56   982     414.5 
  57        57   982     423.6 
  58        58   981     419.0 
  59        59   981     417.3 
  60        60   980     430.3 
  61        61   983     429.0 
  62        62   981     410.8 
  63        63   981     405.4 
  64        64   981     428.1 
  65        65   982     409.0 
  66        66   982     411.7 
  67        67   981     395.5 
  68        68   981     403.7 
  69        69   981     406.4 
  70        70   983     392.3 
  71        71   980     430.6 
  72        72   981     413.2 
  73        73   981     414.9 
  74        74   982     402.6 
  75        75   981     422.7 
  76        76   980     400.7 
  77        77   980     426.9 
  78        78   982     418.5 
  79        79   982     428.4 
  80        80   980     405.1 
  81        81   981     420.0 
  82        82   980     431.0 
  83        83   982     417.5 
  84        84   980     419.4 
  85        85   980     433.0 
  86        86   980     423.5 
  87        87   982     409.4 
  88        88   981     423.0 
  89        89   980     409.2 
  90        90   981     416.9 
  91        91   981     424.1 
  92        92   982     421.6 
  93        93   980     399.0 
  94        94   980     402.4 
  95        95   980     408.5 
  96        96   982     417.5 
  97        97   981     410.1 
  98        98   980     412.2 
  99        99   980     413.3 
 100       100   980     416.3 
 101       101   981     401.0 
 102       102   980     412.6 
 103       103   980     401.7 
 104       104   980     422.4 
 105       105   982     404.3 
 106       106   980     422.8 
 107       107   980     399.3 
 108       108   980     418.0 
 109       109   981     414.2 
 110       110   980     416.0 
 111       111   980     410.2 
 112       112   980     405.4 
 113       113   980     418.4 
 114       114   981     401.6 
 115       115   980     407.1 
 116       116   980     407.1 
 117       117   980     400.0 
 118       118   980     387.8 
 119       119   980     421.1 
 120       120   979     412.0 
 121       121   980     410.9 
 122       122   980     398.3 
 123       123   981     416.9 
 124       124   979     401.8 
 125       125   980     412.6 
 126       126   980     423.5 
 127       127   981     417.6 
 128       128   980     393.9 
 129       129   979     417.4 
 130       130   979     436.5 
 131       131   980     424.1 
 132       132   980     408.8 
 133       133   979     410.6 
 134       134   979     428.0 
 135       135   979     439.2 
 136       136   980     437.4 
 137       137   979     430.0 
 138       138   979     422.5 
 139       139   979     448.4 
 140       140   980     422.8 
 141       141   980     444.6 
 142       142   978     442.1 
 143       143   980     429.3 
 144       144   979     435.1 
 145       145   980     430.3 
 146       146   978     416.8 
 147       147   979     423.6 
 148       148   979     422.2 
 149       149   979     448.1 
 150       150   979     448.1 
 151       210  1000     392.3 
 152       270   997     422.6 
 153       330  1000     408.3 
 154       390   996     449.5 
 155       450   996     387.6 
 156       510   996     440.8 
 157       570   994     390.0 
 158       630   998     387.1 
 159       810   983     371.7 
 160       990   980     351.7 
 161      1170   985     342.1 
 162      1350   986     367.1 
 163      1530   981     392.1 
 164      2070   980     333.7 
 165      2691   973     312.1 
 166      3405   978     322.1 
 167      4226   978     334.7 
 168      5170   976     325.8 
 169      6256   975     316.9 
 170      7505   974     320.0 
 171      8941   977     333.0 
 172     10592   975     342.6 
 173     12491   973     371.7 
 174     14675   979     307.1 
 175     17187   975     286.8 
 176     20076   974     328.2 
 177     23398   977     335.0 
 178     27218   979     278.5 
 179     31611   980     318.0 
 180     36663   980     319.4 
 181     42473   977     294.8 
 182     49155   978     308.1 
 183     56839   980     342.2 
 184     65676   977     299.9 
 185     75839   981     299.9 
   1         1   156     551.3 
   2         2   817     517.3 
   3         3   953     550.9 
   4         4   969     538.7 
   5         5   972     549.4 
   6         6   973     533.1 
   7         7   973     525.2 
   8         8   977     530.9 
   9         9   974     560.9 
  10        10   975     551.8 
  11        11   976     551.6 
  12        12   977     555.4 
  13        13   977     580.0 
  14        14   977     589.6 
  15        15   977     554.1 
  16        16   978     557.6 
  17        17   980     574.5 
  18        18   977     590.9 
  19        19   978     576.0 
  20        20   979     549.5 
  21        21   980     558.8 
  22        22   979     560.8 
  23        23   979     569.6 
  24        24   979     548.5 
  25        25   980     548.6 
  26        26   980     553.4 
  27        27   978     563.1 
  28        28   980     555.1 
  29        29   980     550.3 
  30        30   980     563.6 
  31        31   980     561.2 
  32        32   980     577.6 
  33        33   980     574.1 
  34        34   981     557.9 
  35        35   981     574.2 
  36        36   980     569.7 
  37        37   981     563.4 
  38        38   980     569.7 
  39        39   981     539.6 
  40        40   980     570.1 
  41        41   981     571.5 
  42        42   980     576.5 
  43        43   982     558.0 
  44        44   981     560.0 
  45        45   980     583.0 
  46        46   981     577.6 
  47        47   982     557.7 
  48        48   982     569.6 
  49        49   981     575.6 
  50        50   981     569.5 
  51        51   980     564.3 
  52        52   983     553.4 
  53        53   981     578.0 
  54        54   981     564.7 
  55        55   981     559.0 
  56        56   982     559.4 
  57        57   982     564.8 
  58        58   981     565.1 
  59        59   981     562.0 
  60        60   980     547.3 
  61        61   983     551.0 
  62        62   981     576.6 
  63        63   981     561.3 
  64        64   981     558.6 
  65        65   982     554.3 
  66        66   982     562.8 
  67        67   981     576.6 
  68        68   981     567.8 
  69        69   981     563.4 
  70        70   983     562.6 
  71        71   980     558.8 
  72        72   981     562.4 
  73        73   981     556.9 
  74        74   982     541.8 
  75        75   981     572.2 
  76        76   980     560.9 
  77        77   980     562.6 
  78        78   982     553.3 
  79        79   982     570.3 
  80        80   980     569.7 
  81        81   981     565.4 
  82        82   980     562.2 
  83        83   982     546.5 
  84        84   980     552.7 
  85        85   980     556.5 
  86        86   980     559.9 
  87        87   982     548.2 
  88        88   981     566.8 
  89        89   980     565.6 
  90        90   981     564.1 
  91        91   981     551.8 
  92        92   982     537.3 
  93        93   980     570.7 
  94        94   980     551.7 
  95        95   980     556.1 
  96        96   982     545.1 
  97        97   981     562.4 
  98        98   980     540.1 
  99        99   980     551.4 
 100       100   980     541.8 
 101       101   981     545.0 
 102       102   980     545.6 
 103       103   980     566.0 
 104       104   980     550.7 
 105       105   982     552.6 
 106       106   980     549.7 
 107       107   980     549.3 
 108       108   980     545.6 
 109       109   981     547.7 
 110       110   980     540.8 
 111       111   980     539.5 
 112       112   980     554.4 
 113       113   980     550.7 
 114       114   981     549.1 
 115       115   980     563.3 
 116       116   980     566.7 
 117       117   980     562.6 
 118       118   980     565.6 
 119       119   980     561.6 
 120       120   979     567.2 
 121       121   980     555.4 
 122       122   980     574.8 
 123       123   981     565.1 
 124       124   979     573.4 
 125       125   980     560.5 
 126       126   980     561.2 
 127       127   981     557.3 
 128       128   980     568.4 
 129       129   979     570.7 
 130       130   979     582.2 
 131       131   980     576.2 
 132       132   980     546.6 
 133       133   979     567.2 
 134       134   979     572.4 
 135       135   979     559.1 
 136       136   980     548.3 
 137       137   979     579.5 
 138       138   979     567.6 
 139       139   979     570.3 
 140       140   980     567.7 
 141       141   980     565.0 
 142       142   978     568.8 
 143       143   980     579.9 
 144       144   979     548.2 
 145       145   980     564.3 
 146       146   978     562.4 
 147       147   979     561.8 
 148       148   979     578.8 
 149       149   979     568.9 
 150       150   979     568.9 
 151       210  1000     549.0 
 152       270   997     595.8 
 153       330  1000     588.0 
 154       390   996     563.9 
 155       450   996     603.1 
 156       510   996     604.1 
 157       570   994     588.2 
 158       630   998     572.1 
 159       810   983     556.1 
 160       990   980     594.6 
 161      1170   985     583.4 
 162      1350   986     528.1 
 163      1530   981     587.2 
 164      2070   980     538.4 
 165      2691   973     575.5 
 166      3405   978     614.9 
 167      4226   978     536.5 
 168      5170   976     570.4 
 169      6256   975     519.7 
 170      7505   974     532.9 
 171      8941   977     499.5 
 172     10592   975     515.9 
 173     12491   973     529.3 
 174     14675   979     517.5 
 175     17187   975     514.5 
 176     20076   974     497.6 
 177     23398   977     467.4 
 178     27218   979     461.4 
 179     31611   980     456.5 
 180     36663   980     470.4 
 181     42473   977     391.0 
 182     49155   978     446.1 
 183     56839   980     393.9 
 184     65676   977     380.1 
 185     75839   981     380.1 
