PC/104 FIRe Fluorometer 2.0.0
 4/ 8/2025     27916
LED Color:           blue
Gain:               1900
Sample Delay (msec):    10
Number Samples:   3
STF (usec):      150
STRP (#samples):       35
STRI (usec):       60
MTF (ms):        0
MTF (#samples):     0
MTRP (#samples):        0
MTRI (usec):      100
PQLen:     4
Ambient Light Source Power: Off
PAR (uMol/m^2/s):644.76
Comment:
Depth(m):   4.0
Temperature(C):  46.0
Battery(V):  16.22

         Time    EX   Fl-Yield 
DATA--------------------------
   0         0     0       0.0 
   1         1   156     123.9 
   2         2   817     246.8 
   3         3   953     328.1 
   4         4   969     337.1 
   5         5   972     247.9 
   6         6   973     317.6 
   7         7   973     325.5 
   8         8   977     303.0 
   9         9   974     323.4 
  10        10   975     333.3 
  11        11   976     310.5 
  12        12   977     350.1 
  13        13   977     381.4 
  14        14   977     337.1 
  15        15   977     277.7 
  16        16   978     358.9 
  17        17   980     367.7 
  18        18   977     410.1 
  19        19   978     352.8 
  20        20   979     343.5 
  21        21   980     400.0 
  22        22   979     369.1 
  23        23   979     333.0 
  24        24   979     351.4 
  25        25   980     422.4 
  26        26   980     394.9 
  27        27   978     374.2 
  28        28   980     359.5 
  29        29   980     369.4 
  30        30   980     417.7 
  31        31   980     405.1 
  32        32   980     367.0 
  33        33   980     370.1 
  34        34   981     399.3 
  35        35   981     413.5 
  36        36   980     410.2 
  37        37   981     380.6 
  38        38   980     382.3 
  39        39   981     393.8 
  40        40   980     410.2 
  41        41   981     406.4 
  42        42   980     380.6 
  43        43   982     424.0 
  44        44   981     371.0 
  45        45   980     389.8 
  46        46   981     352.7 
  47        47   982     448.4 
  48        48   982     484.7 
  49        49   981     412.8 
  50        50   981     400.6 
  51        51   980     388.4 
  52        52   983     439.5 
  53        53   981     408.8 
  54        54   981     425.1 
  55        55   981     392.5 
  56        56   982     437.9 
  57        57   982     429.1 
  58        58   981     423.7 
  59        59   981     425.8 
  60        60   980     453.4 
  61        61   983     462.5 
  62        62   981     422.7 
  63        63   981     381.9 
  64        64   981     434.6 
  65        65   982     441.3 
  66        66   982     442.6 
  67        67   981     430.5 
  68        68   981     387.0 
  69        69   981     455.0 
  70        70   983     427.9 
  71        71   980     438.1 
  72        72   981     370.0 
  73        73   981     372.7 
  74        74   982     458.2 
  75        75   981     441.0 
  76        76   980     426.9 
  77        77   980     418.0 
  78        78   982     442.3 
  79        79   982     385.3 
  80        80   980     426.5 
  81        81   981     409.1 
  82        82   980     485.4 
  83        83   982     413.1 
  84        84   980     400.0 
  85        85   980     415.0 
  86        86   980     401.0 
  87        87   982     445.7 
  88        88   981     411.1 
  89        89   980     388.8 
  90        90   981     399.6 
  91        91   981     390.8 
  92        92   982     420.6 
  93        93   980     444.2 
  94        94   980     362.6 
  95        95   980     390.8 
  96        96   982     395.8 
  97        97   981     406.7 
  98        98   980     352.4 
  99        99   980     464.3 
 100       100   980     445.6 
 101       101   981     407.4 
 102       102   980     357.8 
 103       103   980     452.4 
 104       104   980     426.9 
 105       105   982     451.5 
 106       106   980     417.3 
 107       107   980     383.7 
 108       108   980     440.8 
 109       109   981     413.5 
 110       110   980     408.2 
 111       111   980     412.2 
 112       112   980     379.6 
 113       113   980     416.0 
 114       114   981     431.9 
 115       115   980     410.9 
 116       116   980     396.6 
 117       117   980     485.4 
 118       118   980     441.5 
 119       119   980     376.5 
 120       120   979     397.3 
 121       121   980     425.9 
 122       122   980     471.8 
 123       123   981     407.7 
 124       124   979     406.5 
 125       125   980     402.0 
 126       126   980     470.7 
 127       127   981     438.3 
 128       128   980     439.5 
 129       129   979     409.6 
 130       130   979     440.9 
 131       131   980     409.5 
 132       132   980     443.5 
 133       133   979     428.3 
 134       134   979     449.8 
 135       135   979     458.6 
 136       136   980     433.3 
 137       137   979     413.7 
 138       138   979     421.2 
 139       139   979     447.4 
 140       140   980     461.2 
 141       141   980     454.1 
 142       142   978     433.9 
 143       143   980     463.3 
 144       144   979     465.1 
 145       145   980     443.9 
 146       146   978     442.7 
 147       147   979     453.9 
 148       148   979     475.3 
 149       149   979     409.9 
 150       150   979     409.9 
 151       210  1000     380.3 
 152       270   997     450.7 
 153       330  1000     462.0 
 154       390   996     449.1 
 155       450   996     288.2 
 156       510   996     422.7 
 157       570   994     424.9 
 158       630   998     316.0 
 159       810   983     412.0 
 160       990   980     492.2 
 161      1170   985     478.2 
 162      1350   986     420.2 
 163      1530   981     343.9 
 164      2070   980     419.4 
 165      2691   973     317.2 
 166      3405   978     308.1 
 167      4226   978     333.0 
 168      5170   976     271.2 
 169      6256   975     355.9 
 170      7505   974     330.3 
 171      8941   977     303.7 
 172     10592   975     351.8 
 173     12491   973     267.9 
 174     14675   979     363.0 
 175     17187   975     265.3 
 176     20076   974     299.1 
 177     23398   977     356.5 
 178     27218   979     300.6 
 179     31611   980     335.4 
 180     36663   980     307.5 
 181     42473   977     237.8 
 182     49155   978     350.0 
 183     56839   980     358.8 
 184     65676   977     335.0 
 185     75839   981     335.0 
   1         1   156     106.8 
   2         2   817     479.4 
   3         3   953     492.5 
   4         4   969     563.1 
   5         5   972     521.3 
   6         6   973     534.8 
   7         7   973     542.3 
   8         8   977     573.9 
   9         9   974     579.4 
  10        10   975     577.4 
  11        11   976     632.2 
  12        12   977     721.9 
  13        13   977     689.2 
  14        14   977     673.8 
  15        15   977     626.1 
  16        16   978     670.8 
  17        17   980     690.8 
  18        18   977     672.1 
  19        19   978     625.1 
  20        20   979     661.2 
  21        21   980     622.1 
  22        22   979     576.1 
  23        23   979     564.9 
  24        24   979     562.8 
  25        25   980     590.1 
  26        26   980     596.3 
  27        27   978     532.4 
  28        28   980     538.4 
  29        29   980     592.2 
  30        30   980     622.4 
  31        31   980     548.6 
  32        32   980     566.7 
  33        33   980     535.7 
  34        34   981     597.0 
  35        35   981     568.8 
  36        36   980     590.1 
  37        37   981     553.5 
  38        38   980     582.0 
  39        39   981     598.7 
  40        40   980     536.1 
  41        41   981     598.4 
  42        42   980     589.8 
  43        43   982     645.6 
  44        44   981     595.0 
  45        45   980     605.1 
  46        46   981     556.9 
  47        47   982     653.4 
  48        48   982     619.1 
  49        49   981     594.3 
  50        50   981     597.7 
  51        51   980     632.0 
  52        52   983     664.6 
  53        53   981     630.0 
  54        54   981     573.2 
  55        55   981     615.0 
  56        56   982     625.6 
  57        57   982     621.5 
  58        58   981     582.4 
  59        59   981     582.1 
  60        60   980     662.2 
  61        61   983     628.7 
  62        62   981     617.7 
  63        63   981     572.9 
  64        64   981     629.0 
  65        65   982     630.3 
  66        66   982     611.3 
  67        67   981     581.0 
  68        68   981     595.0 
  69        69   981     663.6 
  70        70   983     635.1 
  71        71   980     653.7 
  72        72   981     623.2 
  73        73   981     596.0 
  74        74   982     640.9 
  75        75   981     603.1 
  76        76   980     636.1 
  77        77   980     630.6 
  78        78   982     634.8 
  79        79   982     589.3 
  80        80   980     567.3 
  81        81   981     590.9 
  82        82   980     657.5 
  83        83   982     621.9 
  84        84   980     565.3 
  85        85   980     566.0 
  86        86   980     601.7 
  87        87   982     575.4 
  88        88   981     625.9 
  89        89   980     595.9 
  90        90   981     555.6 
  91        91   981     625.9 
  92        92   982     623.6 
  93        93   980     582.7 
  94        94   980     585.7 
  95        95   980     625.5 
  96        96   982     593.3 
  97        97   981     593.3 
  98        98   980     592.5 
  99        99   980     596.9 
 100       100   980     636.4 
 101       101   981     595.3 
 102       102   980     536.1 
 103       103   980     553.7 
 104       104   980     584.0 
 105       105   982     600.1 
 106       106   980     557.5 
 107       107   980     562.2 
 108       108   980     574.5 
 109       109   981     600.1 
 110       110   980     582.3 
 111       111   980     534.4 
 112       112   980     562.2 
 113       113   980     631.3 
 114       114   981     563.7 
 115       115   980     533.3 
 116       116   980     567.3 
 117       117   980     569.7 
 118       118   980     574.5 
 119       119   980     607.8 
 120       120   979     566.2 
 121       121   980     583.0 
 122       122   980     636.7 
 123       123   981     557.6 
 124       124   979     577.8 
 125       125   980     539.8 
 126       126   980     616.0 
 127       127   981     591.6 
 128       128   980     615.0 
 129       129   979     561.1 
 130       130   979     615.9 
 131       131   980     575.2 
 132       132   980     579.3 
 133       133   979     564.5 
 134       134   979     589.0 
 135       135   979     602.0 
 136       136   980     592.2 
 137       137   979     554.0 
 138       138   979     582.2 
 139       139   979     622.7 
 140       140   980     546.6 
 141       141   980     604.1 
 142       142   978     543.3 
 143       143   980     547.3 
 144       144   979     576.8 
 145       145   980     593.2 
 146       146   978     569.5 
 147       147   979     601.3 
 148       148   979     572.7 
 149       149   979     653.4 
 150       150   979     653.4 
 151       210  1000     619.3 
 152       270   997     580.4 
 153       330  1000     616.3 
 154       390   996     528.8 
 155       450   996     553.2 
 156       510   996     696.8 
 157       570   994     603.3 
 158       630   998     515.4 
 159       810   983     485.6 
 160       990   980     489.5 
 161      1170   985     497.1 
 162      1350   986     489.2 
 163      1530   981     569.5 
 164      2070   980     643.2 
 165      2691   973     517.6 
 166      3405   978     560.0 
 167      4226   978     596.8 
 168      5170   976     483.6 
 169      6256   975     619.5 
 170      7505   974     671.8 
 171      8941   977     604.2 
 172     10592   975     466.0 
 173     12491   973     501.2 
 174     14675   979     466.8 
 175     17187   975     372.6 
 176     20076   974     626.3 
 177     23398   977     433.3 
 178     27218   979     457.3 
 179     31611   980     487.4 
 180     36663   980     482.0 
 181     42473   977     428.5 
 182     49155   978     337.1 
 183     56839   980     367.7 
 184     65676   977     433.3 
 185     75839   981     433.3 
