PC/104 FIRe Fluorometer 2.0.0
 4/ 8/2025     33510
LED Color:           blue
Gain:               2000
Sample Delay (msec):    10
Number Samples:   3
STF (usec):      150
STRP (#samples):       35
STRI (usec):       60
MTF (ms):        0
MTF (#samples):     0
MTRP (#samples):        0
MTRI (usec):      100
PQLen:     4
Ambient Light Source Power: Off
PAR (uMol/m^2/s):900.00
Comment:
Depth(m):   1.5
Temperature(C):  66.9
Battery(V):  15.08

         Time    EX   Fl-Yield 
DATA--------------------------
   0         0     0       0.0 
   1         1   156     -85.5 
   2         2   817     276.6 
   3         3   953     264.8 
   4         4   969     287.9 
   5         5   972     278.1 
   6         6   973     266.2 
   7         7   973     231.2 
   8         8   977     282.5 
   9         9   974     330.6 
  10        10   975     298.5 
  11        11   976     249.3 
  12        12   977     278.4 
  13        13   977     298.2 
  14        14   977     345.6 
  15        15   977     259.0 
  16        16   978     286.6 
  17        17   980     341.8 
  18        18   977     351.1 
  19        19   978     319.4 
  20        20   979     308.1 
  21        21   980     283.3 
  22        22   979     369.8 
  23        23   979     356.5 
  24        24   979     297.9 
  25        25   980     301.0 
  26        26   980     295.9 
  27        27   978     292.8 
  28        28   980     266.3 
  29        29   980     298.0 
  30        30   980     335.7 
  31        31   980     351.0 
  32        32   980     245.6 
  33        33   980     323.1 
  34        34   981     294.6 
  35        35   981     328.9 
  36        36   980     309.5 
  37        37   981     306.2 
  38        38   980     313.6 
  39        39   981     319.7 
  40        40   980     271.1 
  41        41   981     317.0 
  42        42   980     285.4 
  43        43   982     280.7 
  44        44   981     343.2 
  45        45   980     365.3 
  46        46   981     288.8 
  47        47   982     296.3 
  48        48   982     327.6 
  49        49   981     311.2 
  50        50   981     264.7 
  51        51   980     279.6 
  52        52   983     285.2 
  53        53   981     371.0 
  54        54   981     303.1 
  55        55   981     297.7 
  56        56   982     273.6 
  57        57   982     296.7 
  58        58   981     354.7 
  59        59   981     291.5 
  60        60   980     272.8 
  61        61   983     275.7 
  62        62   981     345.6 
  63        63   981     269.5 
  64        64   981     294.6 
  65        65   982     290.2 
  66        66   982     354.7 
  67        67   981     323.5 
  68        68   981     291.2 
  69        69   981     269.1 
  70        70   983     361.1 
  71        71   980     327.6 
  72        72   981     301.7 
  73        73   981     286.4 
  74        74   982     300.7 
  75        75   981     317.0 
  76        76   980     321.8 
  77        77   980     271.1 
  78        78   982     277.3 
  79        79   982     342.5 
  80        80   980     355.4 
  81        81   981     300.7 
  82        82   980     312.2 
  83        83   982     283.8 
  84        84   980     356.8 
  85        85   980     298.3 
  86        86   980     304.1 
  87        87   982     370.7 
  88        88   981     321.1 
  89        89   980     330.6 
  90        90   981     281.0 
  91        91   981     281.7 
  92        92   982     323.8 
  93        93   980     398.6 
  94        94   980     317.7 
  95        95   980     283.7 
  96        96   982     363.2 
  97        97   981     419.3 
  98        98   980     350.0 
  99        99   980     320.1 
 100       100   980     325.9 
 101       101   981     378.9 
 102       102   980     361.9 
 103       103   980     294.6 
 104       104   980     355.8 
 105       105   982     334.7 
 106       106   980     365.0 
 107       107   980     370.4 
 108       108   980     359.9 
 109       109   981     334.7 
 110       110   980     363.6 
 111       111   980     408.8 
 112       112   980     357.1 
 113       113   980     349.0 
 114       114   981     380.9 
 115       115   980     448.3 
 116       116   980     355.4 
 117       117   980     406.8 
 118       118   980     380.3 
 119       119   980     409.9 
 120       120   979     363.6 
 121       121   980     352.0 
 122       122   980     363.3 
 123       123   981     397.9 
 124       124   979     354.1 
 125       125   980     366.3 
 126       126   980     355.4 
 127       127   981     307.2 
 128       128   980     393.9 
 129       129   979     386.4 
 130       130   979     368.4 
 131       131   980     292.2 
 132       132   980     388.1 
 133       133   979     391.6 
 134       134   979     406.5 
 135       135   979     355.8 
 136       136   980     332.3 
 137       137   979     387.5 
 138       138   979     376.2 
 139       139   979     335.7 
 140       140   980     333.3 
 141       141   980     365.0 
 142       142   978     397.1 
 143       143   980     353.7 
 144       144   979     334.4 
 145       145   980     362.6 
 146       146   978     390.9 
 147       147   979     359.2 
 148       148   979     320.4 
 149       149   979     334.7 
 150       150   979     334.7 
 151       210  1000     435.3 
 152       270   997     327.6 
 153       330  1000     542.7 
 154       390   996     308.2 
 155       450   996     406.3 
 156       510   996     361.8 
 157       570   994     334.0 
 158       630   998     439.2 
 159       810   983     331.3 
 160       990   980     315.6 
 161      1170   985     380.4 
 162      1350   986     381.3 
 163      1530   981     200.5 
 164      2070   980     315.0 
 165      2691   973     338.5 
 166      3405   978     289.7 
 167      4226   978     217.1 
 168      5170   976     443.3 
 169      6256   975     304.6 
 170      7505   974     323.8 
 171      8941   977     407.7 
 172     10592   975     234.5 
 173     12491   973     389.9 
 174     14675   979     349.7 
 175     17187   975     314.5 
 176     20076   974     482.5 
 177     23398   977     351.8 
 178     27218   979     320.4 
 179     31611   980     291.2 
 180     36663   980     208.2 
 181     42473   977     334.7 
 182     49155   978     261.4 
 183     56839   980     373.1 
 184     65676   977     361.3 
 185     75839   981     361.3 
   1         1   156     363.2 
   2         2   817     350.5 
   3         3   953     324.9 
   4         4   969     356.4 
   5         5   972     370.0 
   6         6   973     348.1 
   7         7   973     333.3 
   8         8   977     395.1 
   9         9   974     475.4 
  10        10   975     409.6 
  11        11   976     469.6 
  12        12   977     407.7 
  13        13   977     485.5 
  14        14   977     501.2 
  15        15   977     462.6 
  16        16   978     475.1 
  17        17   980     459.9 
  18        18   977     495.1 
  19        19   978     447.9 
  20        20   979     407.6 
  21        21   980     423.8 
  22        22   979     456.9 
  23        23   979     387.5 
  24        24   979     352.1 
  25        25   980     392.2 
  26        26   980     415.6 
  27        27   978     418.5 
  28        28   980     324.8 
  29        29   980     401.7 
  30        30   980     376.9 
  31        31   980     390.1 
  32        32   980     347.3 
  33        33   980     303.7 
  34        34   981     327.2 
  35        35   981     391.1 
  36        36   980     400.3 
  37        37   981     351.3 
  38        38   980     355.1 
  39        39   981     358.1 
  40        40   980     371.1 
  41        41   981     378.9 
  42        42   980     343.9 
  43        43   982     366.9 
  44        44   981     408.1 
  45        45   980     349.3 
  46        46   981     353.4 
  47        47   982     317.4 
  48        48   982     405.6 
  49        49   981     439.3 
  50        50   981     388.7 
  51        51   980     333.0 
  52        52   983     386.9 
  53        53   981     419.6 
  54        54   981     406.0 
  55        55   981     329.6 
  56        56   982     377.8 
  57        57   982     415.1 
  58        58   981     411.1 
  59        59   981     318.7 
  60        60   980     380.6 
  61        61   983     400.5 
  62        62   981     451.9 
  63        63   981     388.4 
  64        64   981     372.7 
  65        65   982     383.6 
  66        66   982     438.9 
  67        67   981     429.8 
  68        68   981     394.8 
  69        69   981     359.8 
  70        70   983     409.0 
  71        71   980     438.4 
  72        72   981     383.3 
  73        73   981     412.2 
  74        74   982     401.6 
  75        75   981     466.5 
  76        76   980     407.1 
  77        77   980     396.9 
  78        78   982     358.8 
  79        79   982     449.1 
  80        80   980     453.1 
  81        81   981     405.7 
  82        82   980     408.2 
  83        83   982     432.8 
  84        84   980     445.9 
  85        85   980     424.1 
  86        86   980     410.9 
  87        87   982     446.0 
  88        88   981     497.8 
  89        89   980     458.5 
  90        90   981     382.3 
  91        91   981     394.5 
  92        92   982     419.6 
  93        93   980     465.3 
  94        94   980     423.1 
  95        95   980     388.8 
  96        96   982     396.1 
  97        97   981     443.4 
  98        98   980     462.9 
  99        99   980     377.2 
 100       100   980     410.5 
 101       101   981     413.2 
 102       102   980     426.5 
 103       103   980     400.0 
 104       104   980     399.3 
 105       105   982     389.3 
 106       106   980     441.8 
 107       107   980     423.5 
 108       108   980     372.4 
 109       109   981     352.0 
 110       110   980     428.6 
 111       111   980     431.3 
 112       112   980     356.1 
 113       113   980     369.7 
 114       114   981     385.3 
 115       115   980     458.2 
 116       116   980     362.9 
 117       117   980     352.4 
 118       118   980     395.9 
 119       119   980     427.2 
 120       120   979     398.7 
 121       121   980     363.9 
 122       122   980     381.3 
 123       123   981     398.9 
 124       124   979     351.7 
 125       125   980     349.3 
 126       126   980     377.2 
 127       127   981     371.4 
 128       128   980     390.8 
 129       129   979     426.3 
 130       130   979     415.4 
 131       131   980     382.3 
 132       132   980     440.1 
 133       133   979     435.5 
 134       134   979     433.4 
 135       135   979     404.8 
 136       136   980     417.0 
 137       137   979     438.5 
 138       138   979     390.2 
 139       139   979     376.2 
 140       140   980     356.1 
 141       141   980     408.8 
 142       142   978     381.7 
 143       143   980     401.0 
 144       144   979     386.1 
 145       145   980     371.1 
 146       146   978     448.5 
 147       147   979     408.6 
 148       148   979     350.0 
 149       149   979     424.6 
 150       150   979     424.6 
 151       210  1000     400.7 
 152       270   997     297.9 
 153       330  1000     470.3 
 154       390   996     374.5 
 155       450   996     503.7 
 156       510   996     402.6 
 157       570   994     357.5 
 158       630   998     357.0 
 159       810   983     314.7 
 160       990   980     329.3 
 161      1170   985     425.4 
 162      1350   986     426.6 
 163      1530   981     288.1 
 164      2070   980     313.6 
 165      2691   973     457.3 
 166      3405   978     237.2 
 167      4226   978     344.6 
 168      5170   976     321.0 
 169      6256   975     331.3 
 170      7505   974     447.3 
 171      8941   977     313.2 
 172     10592   975     566.8 
 173     12491   973     389.2 
 174     14675   979     420.8 
 175     17187   975     441.0 
 176     20076   974     266.3 
 177     23398   977     361.0 
 178     27218   979     375.9 
 179     31611   980     252.4 
 180     36663   980     243.5 
 181     42473   977     290.0 
 182     49155   978     343.2 
 183     56839   980     198.6 
 184     65676   977     209.5 
 185     75839   981     209.5 
