PC/104 FIRe Fluorometer 2.0.0
 4/ 8/2025     33239
LED Color:           blue
Gain:               1800
Sample Delay (msec):    10
Number Samples:   3
STF (usec):      150
STRP (#samples):       35
STRI (usec):       60
MTF (ms):        0
MTF (#samples):     0
MTRP (#samples):        0
MTRI (usec):      100
PQLen:     4
Ambient Light Source Power: Off
PAR (uMol/m^2/s):900.00
Comment:
Depth(m):   1.1
Temperature(C):  66.5
Battery(V):  15.14

         Time    EX   Fl-Yield 
DATA--------------------------
   0         0     0       0.0 
   1         1   156      64.1 
   2         2   817     225.2 
   3         3   953     205.0 
   4         4   969     193.7 
   5         5   972     158.8 
   6         6   973     188.1 
   7         7   973     256.9 
   8         8   977     222.4 
   9         9   974     197.8 
  10        10   975     226.7 
  11        11   976     209.4 
  12        12   977     232.7 
  13        13   977     222.1 
  14        14   977     201.6 
  15        15   977     230.6 
  16        16   978     262.4 
  17        17   980     212.6 
  18        18   977     236.1 
  19        19   978     228.4 
  20        20   979     253.3 
  21        21   980     274.1 
  22        22   979     232.6 
  23        23   979     260.5 
  24        24   979     243.4 
  25        25   980     283.3 
  26        26   980     261.2 
  27        27   978     243.0 
  28        28   980     262.2 
  29        29   980     279.6 
  30        30   980     271.8 
  31        31   980     233.3 
  32        32   980     234.4 
  33        33   980     272.1 
  34        34   981     284.7 
  35        35   981     237.9 
  36        36   980     245.9 
  37        37   981     266.1 
  38        38   980     267.0 
  39        39   981     253.8 
  40        40   980     227.6 
  41        41   981     273.2 
  42        42   980     263.9 
  43        43   982     261.4 
  44        44   981     263.7 
  45        45   980     281.3 
  46        46   981     235.8 
  47        47   982     291.9 
  48        48   982     263.4 
  49        49   981     229.4 
  50        50   981     269.1 
  51        51   980     271.4 
  52        52   983     254.0 
  53        53   981     232.1 
  54        54   981     228.3 
  55        55   981     280.0 
  56        56   982     261.4 
  57        57   982     264.4 
  58        58   981     254.2 
  59        59   981     246.0 
  60        60   980     289.5 
  61        61   983     263.5 
  62        62   981     234.5 
  63        63   981     250.1 
  64        64   981     284.4 
  65        65   982     260.0 
  66        66   982     258.3 
  67        67   981     228.7 
  68        68   981     251.4 
  69        69   981     293.9 
  70        70   983     264.8 
  71        71   980     250.0 
  72        72   981     249.1 
  73        73   981     293.6 
  74        74   982     293.6 
  75        75   981     256.2 
  76        76   980     268.7 
  77        77   980     254.8 
  78        78   982     263.4 
  79        79   982     270.9 
  80        80   980     261.2 
  81        81   981     252.5 
  82        82   980     279.3 
  83        83   982     280.7 
  84        84   980     263.3 
  85        85   980     246.3 
  86        86   980     261.6 
  87        87   982     256.3 
  88        88   981     254.8 
  89        89   980     227.6 
  90        90   981     257.9 
  91        91   981     273.9 
  92        92   982     266.1 
  93        93   980     221.1 
  94        94   980     238.4 
  95        95   980     286.1 
  96        96   982     268.2 
  97        97   981     264.4 
  98        98   980     262.2 
  99        99   980     256.1 
 100       100   980     261.2 
 101       101   981     246.3 
 102       102   980     252.0 
 103       103   980     257.8 
 104       104   980     272.1 
 105       105   982     263.7 
 106       106   980     232.7 
 107       107   980     269.0 
 108       108   980     278.2 
 109       109   981     300.0 
 110       110   980     259.9 
 111       111   980     247.6 
 112       112   980     270.1 
 113       113   980     279.6 
 114       114   981     286.4 
 115       115   980     294.2 
 116       116   980     269.0 
 117       117   980     299.0 
 118       118   980     311.6 
 119       119   980     247.3 
 120       120   979     261.2 
 121       121   980     270.4 
 122       122   980     317.7 
 123       123   981     276.2 
 124       124   979     235.3 
 125       125   980     272.1 
 126       126   980     294.6 
 127       127   981     301.1 
 128       128   980     237.4 
 129       129   979     270.0 
 130       130   979     281.9 
 131       131   980     277.9 
 132       132   980     267.0 
 133       133   979     269.3 
 134       134   979     279.9 
 135       135   979     259.8 
 136       136   980     281.0 
 137       137   979     271.0 
 138       138   979     238.7 
 139       139   979     296.9 
 140       140   980     276.9 
 141       141   980     279.9 
 142       142   978     283.9 
 143       143   980     247.3 
 144       144   979     307.5 
 145       145   980     271.4 
 146       146   978     259.0 
 147       147   979     244.5 
 148       148   979     275.5 
 149       149   979     279.9 
 150       150   979     279.9 
 151       210  1000     215.3 
 152       270   997     290.5 
 153       330  1000     237.7 
 154       390   996     315.3 
 155       450   996     202.1 
 156       510   996     337.0 
 157       570   994     249.8 
 158       630   998     269.2 
 159       810   983     291.6 
 160       990   980     250.0 
 161      1170   985     211.5 
 162      1350   986     271.8 
 163      1530   981     266.1 
 164      2070   980     278.2 
 165      2691   973     189.4 
 166      3405   978     249.5 
 167      4226   978     129.9 
 168      5170   976     282.8 
 169      6256   975     197.3 
 170      7505   974     248.8 
 171      8941   977     220.1 
 172     10592   975     260.9 
 173     12491   973     201.8 
 174     14675   979     235.6 
 175     17187   975     244.4 
 176     20076   974     163.6 
 177     23398   977     167.5 
 178     27218   979     147.1 
 179     31611   980     220.1 
 180     36663   980     238.4 
 181     42473   977     277.4 
 182     49155   978     274.0 
 183     56839   980     139.8 
 184     65676   977     196.2 
 185     75839   981     196.2 
   1         1   156     258.5 
   2         2   817     259.5 
   3         3   953     236.4 
   4         4   969     228.1 
   5         5   972     222.6 
   6         6   973     258.3 
   7         7   973     246.3 
   8         8   977     292.7 
   9         9   974     272.4 
  10        10   975     328.2 
  11        11   976     336.7 
  12        12   977     372.6 
  13        13   977     344.6 
  14        14   977     356.5 
  15        15   977     394.1 
  16        16   978     365.0 
  17        17   980     367.0 
  18        18   977     343.2 
  19        19   978     372.9 
  20        20   979     381.0 
  21        21   980     328.6 
  22        22   979     292.5 
  23        23   979     305.1 
  24        24   979     351.0 
  25        25   980     322.4 
  26        26   980     306.5 
  27        27   978     267.9 
  28        28   980     305.1 
  29        29   980     316.7 
  30        30   980     284.0 
  31        31   980     275.5 
  32        32   980     281.0 
  33        33   980     293.2 
  34        34   981     279.3 
  35        35   981     268.4 
  36        36   980     279.9 
  37        37   981     327.6 
  38        38   980     297.3 
  39        39   981     255.9 
  40        40   980     287.8 
  41        41   981     285.8 
  42        42   980     322.1 
  43        43   982     292.9 
  44        44   981     314.6 
  45        45   980     291.2 
  46        46   981     323.1 
  47        47   982     308.9 
  48        48   982     309.6 
  49        49   981     291.2 
  50        50   981     303.8 
  51        51   980     335.0 
  52        52   983     312.6 
  53        53   981     295.6 
  54        54   981     301.4 
  55        55   981     329.3 
  56        56   982     318.4 
  57        57   982     267.5 
  58        58   981     274.2 
  59        59   981     317.7 
  60        60   980     336.4 
  61        61   983     305.9 
  62        62   981     280.7 
  63        63   981     328.2 
  64        64   981     318.4 
  65        65   982     344.2 
  66        66   982     281.1 
  67        67   981     283.7 
  68        68   981     297.0 
  69        69   981     302.8 
  70        70   983     282.1 
  71        71   980     289.8 
  72        72   981     298.7 
  73        73   981     322.1 
  74        74   982     287.2 
  75        75   981     238.5 
  76        76   980     268.7 
  77        77   980     287.8 
  78        78   982     311.6 
  79        79   982     283.8 
  80        80   980     270.7 
  81        81   981     279.6 
  82        82   980     320.4 
  83        83   982     288.5 
  84        84   980     259.2 
  85        85   980     231.6 
  86        86   980     277.9 
  87        87   982     262.7 
  88        88   981     255.5 
  89        89   980     237.4 
  90        90   981     252.8 
  91        91   981     285.4 
  92        92   982     229.8 
  93        93   980     255.1 
  94        94   980     270.7 
  95        95   980     286.1 
  96        96   982     284.5 
  97        97   981     257.2 
  98        98   980     265.0 
  99        99   980     255.4 
 100       100   980     284.7 
 101       101   981     266.7 
 102       102   980     253.1 
 103       103   980     257.5 
 104       104   980     301.0 
 105       105   982     263.4 
 106       106   980     284.7 
 107       107   980     255.1 
 108       108   980     290.5 
 109       109   981     273.5 
 110       110   980     252.4 
 111       111   980     243.2 
 112       112   980     280.3 
 113       113   980     280.3 
 114       114   981     258.6 
 115       115   980     252.7 
 116       116   980     272.1 
 117       117   980     305.8 
 118       118   980     284.0 
 119       119   980     255.1 
 120       120   979     231.9 
 121       121   980     245.6 
 122       122   980     278.2 
 123       123   981     249.7 
 124       124   979     263.9 
 125       125   980     268.4 
 126       126   980     295.6 
 127       127   981     246.7 
 128       128   980     255.1 
 129       129   979     266.3 
 130       130   979     298.3 
 131       131   980     260.2 
 132       132   980     266.7 
 133       133   979     261.2 
 134       134   979     257.7 
 135       135   979     316.6 
 136       136   980     274.5 
 137       137   979     276.8 
 138       138   979     251.3 
 139       139   979     312.2 
 140       140   980     307.5 
 141       141   980     287.1 
 142       142   978     286.6 
 143       143   980     305.8 
 144       144   979     327.9 
 145       145   980     294.6 
 146       146   978     271.6 
 147       147   979     322.4 
 148       148   979     325.8 
 149       149   979     297.2 
 150       150   979     297.2 
 151       210  1000     246.3 
 152       270   997     405.9 
 153       330  1000     153.3 
 154       390   996     378.8 
 155       450   996     201.8 
 156       510   996     330.0 
 157       570   994     235.7 
 158       630   998     227.1 
 159       810   983     307.6 
 160       990   980     198.3 
 161      1170   985     183.1 
 162      1350   986     214.7 
 163      1530   981     324.2 
 164      2070   980     284.7 
 165      2691   973     198.7 
 166      3405   978     282.9 
 167      4226   978     177.9 
 168      5170   976     277.0 
 169      6256   975     167.9 
 170      7505   974     244.0 
 171      8941   977     162.4 
 172     10592   975     216.8 
 173     12491   973     278.2 
 174     14675   979     252.6 
 175     17187   975     272.5 
 176     20076   974     370.0 
 177     23398   977     249.7 
 178     27218   979     227.1 
 179     31611   980     286.7 
 180     36663   980     156.5 
 181     42473   977     259.6 
 182     49155   978     237.9 
 183     56839   980     183.0 
 184     65676   977     170.2 
 185     75839   981     170.2 
