PC/104 FIRe Fluorometer 2.0.0
 4/ 8/2025     40269
LED Color:           blue
Gain:               1800
Sample Delay (msec):    10
Number Samples:   3
STF (usec):      150
STRP (#samples):       35
STRI (usec):       60
MTF (ms):        0
MTF (#samples):     0
MTRP (#samples):        0
MTRI (usec):      100
PQLen:     4
Ambient Light Source Power: Off
PAR (uMol/m^2/s):630.00
Comment:
Depth(m):  -2.0
Temperature(C):  76.2
Battery(V):  14.02

         Time    EX   Fl-Yield 
DATA--------------------------
   0         0     0       0.0 
   1         1   156     256.4 
   2         2   817     269.7 
   3         3   953     266.5 
   4         4   969     257.3 
   5         5   972     300.8 
   6         6   973     328.2 
   7         7   973     261.4 
   8         8   977     312.9 
   9         9   974     323.1 
  10        10   975     323.8 
  11        11   976     271.5 
  12        12   977     302.6 
  13        13   977     325.1 
  14        14   977     338.5 
  15        15   977     293.8 
  16        16   978     306.7 
  17        17   980     366.0 
  18        18   977     349.7 
  19        19   978     367.4 
  20        20   979     337.1 
  21        21   980     327.6 
  22        22   979     391.6 
  23        23   979     367.7 
  24        24   979     370.8 
  25        25   980     344.2 
  26        26   980     367.0 
  27        27   978     352.1 
  28        28   980     366.3 
  29        29   980     352.7 
  30        30   980     406.1 
  31        31   980     398.3 
  32        32   980     370.4 
  33        33   980     382.7 
  34        34   981     393.5 
  35        35   981     381.9 
  36        36   980     384.4 
  37        37   981     383.3 
  38        38   980     371.1 
  39        39   981     397.2 
  40        40   980     401.7 
  41        41   981     375.8 
  42        42   980     387.8 
  43        43   982     406.0 
  44        44   981     411.5 
  45        45   980     402.7 
  46        46   981     376.1 
  47        47   982     381.9 
  48        48   982     402.9 
  49        49   981     419.0 
  50        50   981     405.4 
  51        51   980     393.9 
  52        52   983     415.1 
  53        53   981     417.6 
  54        54   981     407.7 
  55        55   981     375.1 
  56        56   982     408.7 
  57        57   982     407.3 
  58        58   981     374.8 
  59        59   981     420.7 
  60        60   980     368.7 
  61        61   983     405.6 
  62        62   981     402.0 
  63        63   981     399.9 
  64        64   981     376.1 
  65        65   982     393.1 
  66        66   982     418.9 
  67        67   981     396.2 
  68        68   981     396.2 
  69        69   981     397.6 
  70        70   983     431.7 
  71        71   980     454.1 
  72        72   981     435.3 
  73        73   981     419.3 
  74        74   982     439.6 
  75        75   981     431.9 
  76        76   980     415.6 
  77        77   980     441.5 
  78        78   982     425.0 
  79        79   982     408.4 
  80        80   980     421.4 
  81        81   981     433.2 
  82        82   980     401.7 
  83        83   982     448.7 
  84        84   980     435.0 
  85        85   980     417.7 
  86        86   980     423.5 
  87        87   982     453.8 
  88        88   981     424.1 
  89        89   980     425.9 
  90        90   981     403.0 
  91        91   981     421.0 
  92        92   982     430.1 
  93        93   980     439.1 
  94        94   980     426.5 
  95        95   980     406.1 
  96        96   982     452.5 
  97        97   981     428.1 
  98        98   980     413.3 
  99        99   980     421.1 
 100       100   980     427.9 
 101       101   981     443.4 
 102       102   980     442.9 
 103       103   980     441.2 
 104       104   980     442.9 
 105       105   982     438.2 
 106       106   980     424.5 
 107       107   980     433.7 
 108       108   980     426.5 
 109       109   981     452.3 
 110       110   980     447.6 
 111       111   980     419.4 
 112       112   980     418.4 
 113       113   980     437.1 
 114       114   981     438.0 
 115       115   980     429.9 
 116       116   980     401.0 
 117       117   980     437.1 
 118       118   980     441.5 
 119       119   980     439.1 
 120       120   979     404.5 
 121       121   980     426.5 
 122       122   980     415.3 
 123       123   981     419.3 
 124       124   979     437.2 
 125       125   980     410.5 
 126       126   980     422.8 
 127       127   981     418.3 
 128       128   980     411.2 
 129       129   979     412.0 
 130       130   979     434.5 
 131       131   980     440.1 
 132       132   980     412.9 
 133       133   979     402.8 
 134       134   979     414.7 
 135       135   979     441.3 
 136       136   980     419.7 
 137       137   979     433.1 
 138       138   979     409.3 
 139       139   979     450.1 
 140       140   980     422.8 
 141       141   980     419.4 
 142       142   978     409.7 
 143       143   980     448.6 
 144       144   979     443.0 
 145       145   980     438.4 
 146       146   978     394.7 
 147       147   979     402.5 
 148       148   979     447.1 
 149       149   979     424.6 
 150       150   979     424.6 
 151       210  1000     448.7 
 152       270   997     413.2 
 153       330  1000     412.3 
 154       390   996     454.8 
 155       450   996     430.7 
 156       510   996     380.5 
 157       570   994     367.9 
 158       630   998     398.1 
 159       810   983     336.7 
 160       990   980     336.4 
 161      1170   985     340.4 
 162      1350   986     335.7 
 163      1530   981     361.5 
 164      2070   980     310.9 
 165      2691   973     342.9 
 166      3405   978     316.0 
 167      4226   978     367.8 
 168      5170   976     374.3 
 169      6256   975     336.1 
 170      7505   974     307.7 
 171      8941   977     282.5 
 172     10592   975     298.1 
 173     12491   973     362.8 
 174     14675   979     358.9 
 175     17187   975     372.3 
 176     20076   974     285.4 
 177     23398   977     325.1 
 178     27218   979     354.8 
 179     31611   980     368.4 
 180     36663   980     388.4 
 181     42473   977     312.5 
 182     49155   978     313.6 
 183     56839   980     348.0 
 184     65676   977     307.7 
 185     75839   981     307.7 
   1         1   156     442.3 
   2         2   817     506.7 
   3         3   953     470.8 
   4         4   969     510.1 
   5         5   972     490.1 
   6         6   973     514.2 
   7         7   973     518.0 
   8         8   977     487.2 
   9         9   974     547.9 
  10        10   975     528.2 
  11        11   976     574.1 
  12        12   977     539.7 
  13        13   977     551.7 
  14        14   977     578.3 
  15        15   977     585.1 
  16        16   978     555.9 
  17        17   980     571.8 
  18        18   977     559.9 
  19        19   978     563.1 
  20        20   979     547.5 
  21        21   980     546.9 
  22        22   979     528.1 
  23        23   979     531.8 
  24        24   979     533.9 
  25        25   980     511.9 
  26        26   980     498.3 
  27        27   978     542.9 
  28        28   980     522.4 
  29        29   980     516.0 
  30        30   980     510.5 
  31        31   980     495.2 
  32        32   980     515.0 
  33        33   980     509.5 
  34        34   981     503.6 
  35        35   981     541.6 
  36        36   980     490.5 
  37        37   981     505.6 
  38        38   980     490.1 
  39        39   981     492.0 
  40        40   980     521.4 
  41        41   981     518.9 
  42        42   980     499.7 
  43        43   982     509.8 
  44        44   981     496.1 
  45        45   980     506.8 
  46        46   981     529.1 
  47        47   982     489.8 
  48        48   982     493.6 
  49        49   981     514.1 
  50        50   981     521.2 
  51        51   980     507.8 
  52        52   983     535.1 
  53        53   981     507.3 
  54        54   981     520.6 
  55        55   981     493.7 
  56        56   982     495.6 
  57        57   982     525.5 
  58        58   981     514.1 
  59        59   981     487.6 
  60        60   980     516.3 
  61        61   983     525.3 
  62        62   981     511.4 
  63        63   981     517.2 
  64        64   981     488.3 
  65        65   982     518.0 
  66        66   982     510.9 
  67        67   981     496.8 
  68        68   981     527.4 
  69        69   981     504.2 
  70        70   983     497.1 
  71        71   980     518.7 
  72        72   981     522.9 
  73        73   981     474.0 
  74        74   982     467.1 
  75        75   981     498.1 
  76        76   980     536.4 
  77        77   980     505.1 
  78        78   982     511.5 
  79        79   982     478.6 
  80        80   980     509.2 
  81        81   981     493.0 
  82        82   980     509.5 
  83        83   982     519.0 
  84        84   980     509.9 
  85        85   980     495.6 
  86        86   980     481.0 
  87        87   982     533.9 
  88        88   981     516.8 
  89        89   980     509.5 
  90        90   981     516.1 
  91        91   981     500.8 
  92        92   982     528.5 
  93        93   980     526.9 
  94        94   980     525.2 
  95        95   980     511.2 
  96        96   982     505.8 
  97        97   981     548.8 
  98        98   980     536.4 
  99        99   980     529.6 
 100       100   980     540.5 
 101       101   981     531.8 
 102       102   980     523.1 
 103       103   980     526.9 
 104       104   980     536.7 
 105       105   982     530.2 
 106       106   980     504.4 
 107       107   980     513.3 
 108       108   980     523.5 
 109       109   981     514.1 
 110       110   980     534.0 
 111       111   980     517.7 
 112       112   980     499.7 
 113       113   980     523.1 
 114       114   981     512.1 
 115       115   980     528.6 
 116       116   980     520.4 
 117       117   980     526.2 
 118       118   980     544.2 
 119       119   980     507.8 
 120       120   979     530.8 
 121       121   980     535.4 
 122       122   980     537.1 
 123       123   981     534.1 
 124       124   979     546.5 
 125       125   980     535.0 
 126       126   980     537.1 
 127       127   981     558.6 
 128       128   980     567.7 
 129       129   979     549.5 
 130       130   979     531.2 
 131       131   980     548.0 
 132       132   980     550.3 
 133       133   979     560.1 
 134       134   979     534.9 
 135       135   979     570.7 
 136       136   980     536.1 
 137       137   979     566.9 
 138       138   979     544.4 
 139       139   979     577.8 
 140       140   980     542.2 
 141       141   980     575.9 
 142       142   978     538.9 
 143       143   980     498.0 
 144       144   979     564.5 
 145       145   980     536.4 
 146       146   978     536.8 
 147       147   979     522.0 
 148       148   979     541.7 
 149       149   979     516.2 
 150       150   979     516.2 
 151       210  1000     493.0 
 152       270   997     498.2 
 153       330  1000     585.0 
 154       390   996     517.4 
 155       450   996     496.7 
 156       510   996     525.1 
 157       570   994     499.0 
 158       630   998     624.2 
 159       810   983     503.2 
 160       990   980     509.9 
 161      1170   985     496.1 
 162      1350   986     536.5 
 163      1530   981     547.1 
 164      2070   980     522.8 
 165      2691   973     523.8 
 166      3405   978     529.7 
 167      4226   978     498.3 
 168      5170   976     471.7 
 169      6256   975     528.2 
 170      7505   974     465.4 
 171      8941   977     455.5 
 172     10592   975     521.0 
 173     12491   973     444.3 
 174     14675   979     480.4 
 175     17187   975     440.0 
 176     20076   974     392.2 
 177     23398   977     450.4 
 178     27218   979     385.4 
 179     31611   980     368.4 
 180     36663   980     394.2 
 181     42473   977     376.0 
 182     49155   978     416.8 
 183     56839   980     363.6 
 184     65676   977     321.7 
 185     75839   981     321.7 
