PC/104 FIRe Fluorometer 2.0.0
 4/ 8/2025     40257
LED Color:           blue
Gain:               2000
Sample Delay (msec):    10
Number Samples:   3
STF (usec):      150
STRP (#samples):       35
STRI (usec):       60
MTF (ms):        0
MTF (#samples):     0
MTRP (#samples):        0
MTRI (usec):      100
PQLen:     4
Ambient Light Source Power: Off
PAR (uMol/m^2/s):900.00
Comment:
Depth(m):  -2.0
Temperature(C):  76.3
Battery(V):  14.02

         Time    EX   Fl-Yield 
DATA--------------------------
   0         0     0       0.0 
   1         1   156     559.8 
   2         2   817     471.2 
   3         3   953     408.9 
   4         4   969     398.3 
   5         5   972     417.0 
   6         6   973     480.6 
   7         7   973     437.8 
   8         8   977     449.3 
   9         9   974     443.5 
  10        10   975     513.2 
  11        11   976     442.6 
  12        12   977     470.1 
  13        13   977     489.9 
  14        14   977     443.2 
  15        15   977     498.1 
  16        16   978     478.2 
  17        17   980     474.8 
  18        18   977     478.0 
  19        19   978     493.2 
  20        20   979     505.3 
  21        21   980     482.0 
  22        22   979     467.5 
  23        23   979     486.9 
  24        24   979     521.3 
  25        25   980     524.1 
  26        26   980     508.2 
  27        27   978     520.8 
  28        28   980     520.4 
  29        29   980     482.0 
  30        30   980     550.0 
  31        31   980     526.9 
  32        32   980     543.9 
  33        33   980     552.4 
  34        34   981     524.0 
  35        35   981     532.4 
  36        36   980     533.0 
  37        37   981     537.2 
  38        38   980     530.3 
  39        39   981     555.6 
  40        40   980     558.2 
  41        41   981     606.2 
  42        42   980     554.4 
  43        43   982     613.0 
  44        44   981     580.7 
  45        45   980     635.0 
  46        46   981     592.6 
  47        47   982     583.5 
  48        48   982     588.9 
  49        49   981     598.7 
  50        50   981     594.3 
  51        51   980     585.7 
  52        52   983     553.4 
  53        53   981     584.8 
  54        54   981     584.8 
  55        55   981     572.9 
  56        56   982     580.1 
  57        57   982     560.1 
  58        58   981     555.6 
  59        59   981     553.5 
  60        60   980     616.3 
  61        61   983     590.0 
  62        62   981     605.5 
  63        63   981     636.8 
  64        64   981     567.4 
  65        65   982     566.9 
  66        66   982     591.3 
  67        67   981     606.9 
  68        68   981     572.5 
  69        69   981     569.1 
  70        70   983     571.7 
  71        71   980     589.8 
  72        72   981     583.1 
  73        73   981     532.4 
  74        74   982     609.3 
  75        75   981     574.2 
  76        76   980     577.6 
  77        77   980     536.7 
  78        78   982     582.8 
  79        79   982     572.0 
  80        80   980     602.4 
  81        81   981     552.5 
  82        82   980     613.3 
  83        83   982     599.1 
  84        84   980     587.8 
  85        85   980     612.9 
  86        86   980     550.3 
  87        87   982     554.0 
  88        88   981     542.6 
  89        89   980     617.7 
  90        90   981     596.0 
  91        91   981     614.0 
  92        92   982     588.3 
  93        93   980     623.1 
  94        94   980     618.7 
  95        95   980     576.2 
  96        96   982     600.8 
  97        97   981     589.2 
  98        98   980     588.8 
  99        99   980     594.9 
 100       100   980     631.6 
 101       101   981     603.1 
 102       102   980     574.5 
 103       103   980     574.8 
 104       104   980     570.7 
 105       105   982     548.9 
 106       106   980     605.8 
 107       107   980     582.0 
 108       108   980     598.3 
 109       109   981     580.7 
 110       110   980     566.0 
 111       111   980     603.7 
 112       112   980     566.7 
 113       113   980     593.5 
 114       114   981     616.4 
 115       115   980     634.0 
 116       116   980     549.3 
 117       117   980     613.3 
 118       118   980     598.3 
 119       119   980     616.7 
 120       120   979     596.9 
 121       121   980     586.4 
 122       122   980     610.9 
 123       123   981     603.1 
 124       124   979     601.6 
 125       125   980     623.5 
 126       126   980     606.1 
 127       127   981     653.1 
 128       128   980     604.8 
 129       129   979     632.3 
 130       130   979     646.6 
 131       131   980     631.3 
 132       132   980     647.6 
 133       133   979     630.2 
 134       134   979     669.0 
 135       135   979     659.9 
 136       136   980     678.2 
 137       137   979     696.3 
 138       138   979     637.4 
 139       139   979     624.4 
 140       140   980     631.3 
 141       141   980     684.0 
 142       142   978     642.5 
 143       143   980     605.1 
 144       144   979     614.6 
 145       145   980     634.4 
 146       146   978     644.5 
 147       147   979     617.0 
 148       148   979     620.0 
 149       149   979     612.2 
 150       150   979     612.2 
 151       210  1000     549.3 
 152       270   997     643.3 
 153       330  1000     596.3 
 154       390   996     565.9 
 155       450   996     442.4 
 156       510   996     614.5 
 157       570   994     510.1 
 158       630   998     587.2 
 159       810   983     423.5 
 160       990   980     438.4 
 161      1170   985     464.0 
 162      1350   986     563.6 
 163      1530   981     556.2 
 164      2070   980     510.5 
 165      2691   973     392.3 
 166      3405   978     449.2 
 167      4226   978     468.3 
 168      5170   976     489.8 
 169      6256   975     498.5 
 170      7505   974     482.9 
 171      8941   977     454.5 
 172     10592   975     441.4 
 173     12491   973     437.8 
 174     14675   979     446.4 
 175     17187   975     467.7 
 176     20076   974     509.6 
 177     23398   977     470.8 
 178     27218   979     392.2 
 179     31611   980     406.5 
 180     36663   980     396.6 
 181     42473   977     481.7 
 182     49155   978     377.3 
 183     56839   980     385.4 
 184     65676   977     518.3 
 185     75839   981     518.3 
   1         1   156     809.8 
   2         2   817     743.8 
   3         3   953     718.1 
   4         4   969     683.9 
   5         5   972     761.3 
   6         6   973     805.4 
   7         7   973     766.0 
   8         8   977     751.3 
   9         9   974     751.5 
  10        10   975     820.9 
  11        11   976     813.9 
  12        12   977     815.8 
  13        13   977     842.7 
  14        14   977     856.7 
  15        15   977     838.6 
  16        16   978     828.6 
  17        17   980     814.6 
  18        18   977     854.7 
  19        19   978     774.4 
  20        20   979     787.2 
  21        21   980     788.8 
  22        22   979     790.9 
  23        23   979     824.7 
  24        24   979     742.6 
  25        25   980     689.5 
  26        26   980     745.2 
  27        27   978     765.8 
  28        28   980     703.1 
  29        29   980     731.6 
  30        30   980     752.4 
  31        31   980     762.9 
  32        32   980     754.8 
  33        33   980     705.4 
  34        34   981     747.2 
  35        35   981     688.8 
  36        36   980     784.7 
  37        37   981     728.5 
  38        38   980     746.9 
  39        39   981     748.6 
  40        40   980     735.0 
  41        41   981     763.2 
  42        42   980     732.0 
  43        43   982     749.2 
  44        44   981     715.9 
  45        45   980     732.0 
  46        46   981     726.8 
  47        47   982     711.8 
  48        48   982     713.5 
  49        49   981     775.7 
  50        50   981     719.3 
  51        51   980     722.1 
  52        52   983     737.9 
  53        53   981     744.8 
  54        54   981     735.0 
  55        55   981     730.9 
  56        56   982     725.1 
  57        57   982     702.3 
  58        58   981     779.1 
  59        59   981     716.6 
  60        60   980     738.1 
  61        61   983     756.9 
  62        62   981     758.7 
  63        63   981     709.5 
  64        64   981     739.0 
  65        65   982     695.5 
  66        66   982     734.9 
  67        67   981     746.9 
  68        68   981     724.4 
  69        69   981     718.3 
  70        70   983     734.1 
  71        71   980     767.0 
  72        72   981     729.2 
  73        73   981     743.5 
  74        74   982     688.7 
  75        75   981     744.5 
  76        76   980     719.4 
  77        77   980     744.9 
  78        78   982     691.8 
  79        79   982     745.4 
  80        80   980     753.7 
  81        81   981     729.2 
  82        82   980     733.0 
  83        83   982     734.6 
  84        84   980     784.4 
  85        85   980     728.6 
  86        86   980     765.6 
  87        87   982     704.0 
  88        88   981     762.5 
  89        89   980     758.2 
  90        90   981     739.7 
  91        91   981     766.9 
  92        92   982     746.8 
  93        93   980     792.5 
  94        94   980     777.6 
  95        95   980     813.6 
  96        96   982     758.3 
  97        97   981     754.7 
  98        98   980     758.8 
  99        99   980     759.5 
 100       100   980     720.7 
 101       101   981     773.0 
 102       102   980     755.4 
 103       103   980     806.8 
 104       104   980     803.7 
 105       105   982     761.7 
 106       106   980     779.3 
 107       107   980     817.0 
 108       108   980     786.1 
 109       109   981     763.8 
 110       110   980     841.2 
 111       111   980     839.5 
 112       112   980     750.7 
 113       113   980     823.8 
 114       114   981     831.1 
 115       115   980     824.1 
 116       116   980     820.1 
 117       117   980     815.6 
 118       118   980     822.8 
 119       119   980     819.7 
 120       120   979     815.5 
 121       121   980     781.3 
 122       122   980     801.4 
 123       123   981     854.6 
 124       124   979     770.9 
 125       125   980     824.1 
 126       126   980     791.5 
 127       127   981     818.6 
 128       128   980     811.2 
 129       129   979     799.5 
 130       130   979     754.9 
 131       131   980     846.3 
 132       132   980     848.3 
 133       133   979     773.2 
 134       134   979     831.1 
 135       135   979     809.0 
 136       136   980     827.9 
 137       137   979     793.0 
 138       138   979     768.1 
 139       139   979     778.0 
 140       140   980     815.6 
 141       141   980     778.9 
 142       142   978     782.2 
 143       143   980     778.2 
 144       144   979     760.6 
 145       145   980     828.2 
 146       146   978     811.5 
 147       147   979     785.2 
 148       148   979     735.8 
 149       149   979     764.0 
 150       150   979     764.0 
 151       210  1000     722.7 
 152       270   997     894.7 
 153       330  1000     875.3 
 154       390   996     806.2 
 155       450   996     811.6 
 156       510   996     816.3 
 157       570   994     811.9 
 158       630   998     874.1 
 159       810   983     798.6 
 160       990   980     856.5 
 161      1170   985     797.6 
 162      1350   986     835.4 
 163      1530   981     837.2 
 164      2070   980     778.6 
 165      2691   973     747.9 
 166      3405   978     892.3 
 167      4226   978     761.4 
 168      5170   976     777.0 
 169      6256   975     773.7 
 170      7505   974     748.5 
 171      8941   977     801.4 
 172     10592   975     868.0 
 173     12491   973     651.6 
 174     14675   979     608.1 
 175     17187   975     738.1 
 176     20076   974     654.7 
 177     23398   977     695.7 
 178     27218   979     670.4 
 179     31611   980     552.0 
 180     36663   980     641.8 
 181     42473   977     631.5 
 182     49155   978     591.7 
 183     56839   980     591.2 
 184     65676   977     508.0 
 185     75839   981     508.0 
