PC/104 FIRe Fluorometer 2.0.0
 4/ 8/2025     33204
LED Color:           blue
Gain:               2000
Sample Delay (msec):    10
Number Samples:   3
STF (usec):      150
STRP (#samples):       35
STRI (usec):       60
MTF (ms):        0
MTF (#samples):     0
MTRP (#samples):        0
MTRI (usec):      100
PQLen:     4
Ambient Light Source Power: Off
PAR (uMol/m^2/s):894.37
Comment:
Depth(m):   1.1
Temperature(C):  66.2
Battery(V):  15.15

         Time    EX   Fl-Yield 
DATA--------------------------
   0         0     0       0.0 
   1         1   156     284.2 
   2         2   817     408.8 
   3         3   953     441.8 
   4         4   969     471.3 
   5         5   972     440.3 
   6         6   973     432.0 
   7         7   973     454.6 
   8         8   977     491.3 
   9         9   974     528.4 
  10        10   975     478.6 
  11        11   976     489.1 
  12        12   977     515.5 
  13        13   977     522.7 
  14        14   977     521.0 
  15        15   977     527.8 
  16        16   978     519.4 
  17        17   980     549.3 
  18        18   977     540.8 
  19        19   978     534.4 
  20        20   979     567.9 
  21        21   980     547.6 
  22        22   979     597.2 
  23        23   979     545.5 
  24        24   979     588.0 
  25        25   980     553.4 
  26        26   980     609.2 
  27        27   978     613.2 
  28        28   980     590.8 
  29        29   980     617.0 
  30        30   980     588.4 
  31        31   980     651.7 
  32        32   980     605.1 
  33        33   980     601.4 
  34        34   981     685.4 
  35        35   981     688.4 
  36        36   980     680.6 
  37        37   981     640.8 
  38        38   980     699.3 
  39        39   981     724.8 
  40        40   980     661.9 
  41        41   981     688.4 
  42        42   980     690.1 
  43        43   982     708.8 
  44        44   981     736.3 
  45        45   980     707.8 
  46        46   981     692.8 
  47        47   982     681.9 
  48        48   982     714.2 
  49        49   981     701.7 
  50        50   981     683.0 
  51        51   980     701.0 
  52        52   983     721.9 
  53        53   981     726.1 
  54        54   981     739.7 
  55        55   981     743.5 
  56        56   982     771.2 
  57        57   982     788.9 
  58        58   981     726.8 
  59        59   981     743.5 
  60        60   980     735.0 
  61        61   983     778.6 
  62        62   981     742.1 
  63        63   981     733.6 
  64        64   981     758.1 
  65        65   982     754.2 
  66        66   982     746.8 
  67        67   981     773.0 
  68        68   981     737.3 
  69        69   981     746.5 
  70        70   983     764.7 
  71        71   980     790.1 
  72        72   981     748.9 
  73        73   981     771.3 
  74        74   982     742.4 
  75        75   981     758.7 
  76        76   980     698.0 
  77        77   980     716.7 
  78        78   982     756.3 
  79        79   982     760.7 
  80        80   980     776.9 
  81        81   981     712.5 
  82        82   980     708.2 
  83        83   982     774.3 
  84        84   980     778.9 
  85        85   980     712.6 
  86        86   980     759.5 
  87        87   982     755.6 
  88        88   981     801.2 
  89        89   980     753.4 
  90        90   981     712.2 
  91        91   981     769.3 
  92        92   982     780.0 
  93        93   980     758.2 
  94        94   980     729.9 
  95        95   980     693.9 
  96        96   982     767.5 
  97        97   981     743.5 
  98        98   980     728.6 
  99        99   980     700.3 
 100       100   980     735.0 
 101       101   981     752.6 
 102       102   980     724.5 
 103       103   980     701.0 
 104       104   980     748.3 
 105       105   982     675.2 
 106       106   980     713.6 
 107       107   980     692.5 
 108       108   980     691.8 
 109       109   981     722.1 
 110       110   980     690.1 
 111       111   980     747.3 
 112       112   980     706.1 
 113       113   980     713.6 
 114       114   981     737.3 
 115       115   980     685.7 
 116       116   980     693.9 
 117       117   980     710.5 
 118       118   980     683.0 
 119       119   980     717.0 
 120       120   979     676.5 
 121       121   980     698.3 
 122       122   980     694.2 
 123       123   981     730.5 
 124       124   979     725.6 
 125       125   980     710.9 
 126       126   980     709.5 
 127       127   981     736.3 
 128       128   980     755.4 
 129       129   979     708.9 
 130       130   979     725.6 
 131       131   980     705.8 
 132       132   980     779.6 
 133       133   979     733.4 
 134       134   979     663.3 
 135       135   979     725.6 
 136       136   980     705.1 
 137       137   979     748.7 
 138       138   979     658.8 
 139       139   979     712.0 
 140       140   980     735.4 
 141       141   980     687.8 
 142       142   978     625.8 
 143       143   980     651.0 
 144       144   979     691.2 
 145       145   980     681.3 
 146       146   978     731.8 
 147       147   979     718.8 
 148       148   979     709.9 
 149       149   979     726.3 
 150       150   979     726.3 
 151       210  1000     760.0 
 152       270   997     632.2 
 153       330  1000     646.7 
 154       390   996     639.9 
 155       450   996     607.4 
 156       510   996     664.3 
 157       570   994     520.8 
 158       630   998     656.6 
 159       810   983     621.2 
 160       990   980     480.6 
 161      1170   985     701.5 
 162      1350   986     578.8 
 163      1530   981     516.8 
 164      2070   980     495.6 
 165      2691   973     715.0 
 166      3405   978     395.4 
 167      4226   978     607.4 
 168      5170   976     386.3 
 169      6256   975     516.9 
 170      7505   974     539.4 
 171      8941   977     479.7 
 172     10592   975     401.4 
 173     12491   973     560.1 
 174     14675   979     431.1 
 175     17187   975     388.4 
 176     20076   974     469.2 
 177     23398   977     480.0 
 178     27218   979     467.1 
 179     31611   980     517.7 
 180     36663   980     471.8 
 181     42473   977     517.2 
 182     49155   978     425.7 
 183     56839   980     469.0 
 184     65676   977     585.1 
 185     75839   981     585.1 
   1         1   156     455.1 
   2         2   817     878.8 
   3         3   953     806.2 
   4         4   969     806.0 
   5         5   972     765.1 
   6         6   973     833.5 
   7         7   973     836.9 
   8         8   977     860.1 
   9         9   974     848.4 
  10        10   975     877.9 
  11        11   976     866.5 
  12        12   977     888.4 
  13        13   977     915.7 
  14        14   977     923.6 
  15        15   977     932.4 
  16        16   978     973.4 
  17        17   980     907.5 
  18        18   977     900.7 
  19        19   978     859.9 
  20        20   979     867.2 
  21        21   980     907.1 
  22        22   979     857.3 
  23        23   979     783.8 
  24        24   979     827.4 
  25        25   980     851.7 
  26        26   980     808.8 
  27        27   978     839.8 
  28        28   980     785.7 
  29        29   980     794.2 
  30        30   980     815.3 
  31        31   980     819.4 
  32        32   980     809.5 
  33        33   980     810.2 
  34        34   981     824.3 
  35        35   981     788.0 
  36        36   980     826.9 
  37        37   981     843.0 
  38        38   980     835.0 
  39        39   981     837.6 
  40        40   980     808.5 
  41        41   981     813.1 
  42        42   980     866.3 
  43        43   982     852.0 
  44        44   981     834.9 
  45        45   980     819.7 
  46        46   981     851.9 
  47        47   982     887.0 
  48        48   982     871.7 
  49        49   981     843.4 
  50        50   981     852.9 
  51        51   980     824.1 
  52        52   983     850.1 
  53        53   981     887.5 
  54        54   981     872.6 
  55        55   981     863.7 
  56        56   982     900.5 
  57        57   982     865.6 
  58        58   981     852.5 
  59        59   981     861.4 
  60        60   980     890.8 
  61        61   983     887.8 
  62        62   981     886.9 
  63        63   981     922.5 
  64        64   981     903.2 
  65        65   982     882.9 
  66        66   982     933.1 
  67        67   981     919.1 
  68        68   981     948.4 
  69        69   981     916.4 
  70        70   983     884.7 
  71        71   980     909.2 
  72        72   981     924.2 
  73        73   981     985.0 
  74        74   982     906.0 
  75        75   981     945.3 
  76        76   980     904.4 
  77        77   980     975.9 
  78        78   982     943.3 
  79        79   982     902.9 
  80        80   980     911.9 
  81        81   981     925.9 
  82        82   980     862.2 
  83        83   982     939.6 
  84        84   980     943.2 
  85        85   980     938.8 
  86        86   980     921.8 
  87        87   982     921.6 
  88        88   981     951.1 
  89        89   980     911.6 
  90        90   981     929.7 
  91        91   981     938.5 
  92        92   982     942.3 
  93        93   980     928.2 
  94        94   980     926.9 
  95        95   980     925.5 
  96        96   982     941.6 
  97        97   981     900.8 
  98        98   980     894.2 
  99        99   980     966.0 
 100       100   980     944.2 
 101       101   981     952.4 
 102       102   980     886.1 
 103       103   980     920.4 
 104       104   980     932.3 
 105       105   982     894.1 
 106       106   980     917.3 
 107       107   980     944.6 
 108       108   980     877.9 
 109       109   981     941.6 
 110       110   980     910.5 
 111       111   980     852.4 
 112       112   980     939.1 
 113       113   980     925.9 
 114       114   981     899.1 
 115       115   980     915.6 
 116       116   980     882.3 
 117       117   980     881.3 
 118       118   980     904.8 
 119       119   980     912.9 
 120       120   979     935.3 
 121       121   980     898.6 
 122       122   980     887.8 
 123       123   981     884.1 
 124       124   979     898.2 
 125       125   980     876.2 
 126       126   980     874.8 
 127       127   981     871.6 
 128       128   980     894.6 
 129       129   979     845.8 
 130       130   979     870.3 
 131       131   980     859.5 
 132       132   980     912.2 
 133       133   979     875.4 
 134       134   979     866.2 
 135       135   979     909.1 
 136       136   980     883.3 
 137       137   979     848.8 
 138       138   979     853.3 
 139       139   979     817.2 
 140       140   980     863.6 
 141       141   980     886.7 
 142       142   978     813.9 
 143       143   980     892.9 
 144       144   979     820.6 
 145       145   980     856.1 
 146       146   978     868.8 
 147       147   979     822.6 
 148       148   979     847.5 
 149       149   979     849.5 
 150       150   979     849.5 
 151       210  1000     988.3 
 152       270   997     938.8 
 153       330  1000     868.0 
 154       390   996     818.9 
 155       450   996    1008.7 
 156       510   996     936.7 
 157       570   994     976.2 
 158       630   998     789.9 
 159       810   983     992.2 
 160       990   980     851.0 
 161      1170   985     795.3 
 162      1350   986     931.4 
 163      1530   981     895.3 
 164      2070   980     837.8 
 165      2691   973     831.4 
 166      3405   978     802.7 
 167      4226   978     792.4 
 168      5170   976     795.1 
 169      6256   975     855.0 
 170      7505   974     762.1 
 171      8941   977     782.7 
 172     10592   975     812.3 
 173     12491   973     747.2 
 174     14675   979     692.5 
 175     17187   975     674.2 
 176     20076   974     621.8 
 177     23398   977     575.9 
 178     27218   979     628.2 
 179     31611   980     517.0 
 180     36663   980     554.4 
 181     42473   977     585.8 
 182     49155   978     501.7 
 183     56839   980     491.5 
 184     65676   977     422.0 
 185     75839   981     422.0 
