PC/104 FIRe Fluorometer 2.0.0
 4/ 8/2025     27660
LED Color:           blue
Gain:               2000
Sample Delay (msec):    10
Number Samples:   3
STF (usec):      150
STRP (#samples):       35
STRI (usec):       60
MTF (ms):        0
MTF (#samples):     0
MTRP (#samples):        0
MTRI (usec):      100
PQLen:     4
Ambient Light Source Power: Off
PAR (uMol/m^2/s):630.00
Comment:
Depth(m):   3.4
Temperature(C):  44.9
Battery(V):  16.25

         Time    EX   Fl-Yield 
DATA--------------------------
   0         0     0       0.0 
   1         1   156     -15.0 
   2         2   817     152.2 
   3         3   953     148.7 
   4         4   969     219.8 
   5         5   972     187.6 
   6         6   973     210.3 
   7         7   973     165.5 
   8         8   977     205.4 
   9         9   974     167.4 
  10        10   975     186.0 
  11        11   976     200.8 
  12        12   977     205.4 
  13        13   977     164.4 
  14        14   977     192.8 
  15        15   977     201.0 
  16        16   978     189.2 
  17        17   980     148.0 
  18        18   977     168.5 
  19        19   978     203.5 
  20        20   979     220.0 
  21        21   980     206.1 
  22        22   979     214.5 
  23        23   979     183.5 
  24        24   979     225.4 
  25        25   980     218.0 
  26        26   980     223.5 
  27        27   978     243.0 
  28        28   980     240.5 
  29        29   980     163.3 
  30        30   980     184.0 
  31        31   980     287.4 
  32        32   980     182.3 
  33        33   980     196.6 
  34        34   981     233.4 
  35        35   981     219.5 
  36        36   980     187.4 
  37        37   981     206.6 
  38        38   980     148.6 
  39        39   981     214.4 
  40        40   980     168.7 
  41        41   981     159.7 
  42        42   980     205.1 
  43        43   982     204.3 
  44        44   981     195.0 
  45        45   980     201.4 
  46        46   981     162.8 
  47        47   982     184.0 
  48        48   982     156.1 
  49        49   981     195.0 
  50        50   981     227.0 
  51        51   980     226.2 
  52        52   983     192.3 
  53        53   981     166.2 
  54        54   981     144.8 
  55        55   981     237.2 
  56        56   982     194.5 
  57        57   982     170.7 
  58        58   981     165.5 
  59        59   981     166.8 
  60        60   980     158.8 
  61        61   983     199.7 
  62        62   981     241.9 
  63        63   981     178.0 
  64        64   981     155.6 
  65        65   982     166.7 
  66        66   982     177.2 
  67        67   981     211.0 
  68        68   981     143.7 
  69        69   981     181.4 
  70        70   983     182.1 
  71        71   980     133.0 
  72        72   981     207.6 
  73        73   981     155.6 
  74        74   982     176.8 
  75        75   981     208.6 
  76        76   980     184.7 
  77        77   980     160.9 
  78        78   982     164.3 
  79        79   982     233.5 
  80        80   980     217.7 
  81        81   981     179.7 
  82        82   980     163.3 
  83        83   982     148.7 
  84        84   980     161.2 
  85        85   980     142.5 
  86        86   980     159.9 
  87        87   982     154.1 
  88        88   981     107.4 
  89        89   980     178.2 
  90        90   981     151.5 
  91        91   981     209.3 
  92        92   982     178.2 
  93        93   980     140.8 
  94        94   980     123.8 
  95        95   980     188.8 
  96        96   982     146.0 
  97        97   981     183.1 
  98        98   980     199.0 
  99        99   980     118.0 
 100       100   980     154.1 
 101       101   981     202.2 
 102       102   980     233.0 
 103       103   980     169.0 
 104       104   980     157.8 
 105       105   982     153.8 
 106       106   980     219.0 
 107       107   980     207.8 
 108       108   980     174.8 
 109       109   981     165.5 
 110       110   980     189.5 
 111       111   980     169.7 
 112       112   980     210.2 
 113       113   980     215.6 
 114       114   981     227.0 
 115       115   980     234.0 
 116       116   980     253.1 
 117       117   980     217.0 
 118       118   980     192.2 
 119       119   980     222.8 
 120       120   979     206.3 
 121       121   980     168.7 
 122       122   980     218.7 
 123       123   981     203.5 
 124       124   979     210.1 
 125       125   980     168.0 
 126       126   980     190.1 
 127       127   981     186.2 
 128       128   980     216.7 
 129       129   979     173.6 
 130       130   979     233.6 
 131       131   980     199.7 
 132       132   980     265.3 
 133       133   979     197.8 
 134       134   979     176.0 
 135       135   979     221.3 
 136       136   980     271.1 
 137       137   979     258.8 
 138       138   979     231.5 
 139       139   979     242.1 
 140       140   980     210.9 
 141       141   980     235.7 
 142       142   978     262.4 
 143       143   980     276.9 
 144       144   979     278.9 
 145       145   980     219.7 
 146       146   978     264.8 
 147       147   979     266.6 
 148       148   979     239.7 
 149       149   979     216.5 
 150       150   979     216.5 
 151       210  1000      67.7 
 152       270   997     263.5 
 153       330  1000     173.3 
 154       390   996     327.6 
 155       450   996     199.5 
 156       510   996     254.4 
 157       570   994     191.1 
 158       630   998     305.6 
 159       810   983     142.1 
 160       990   980     160.5 
 161      1170   985      84.6 
 162      1350   986     240.7 
 163      1530   981     192.0 
 164      2070   980     251.4 
 165      2691   973      97.0 
 166      3405   978     257.0 
 167      4226   978     238.2 
 168      5170   976     126.7 
 169      6256   975     214.7 
 170      7505   974     224.8 
 171      8941   977     200.3 
 172     10592   975     224.6 
 173     12491   973     233.3 
 174     14675   979      70.8 
 175     17187   975     102.2 
 176     20076   974     108.5 
 177     23398   977     241.2 
 178     27218   979     244.1 
 179     31611   980      80.3 
 180     36663   980     189.8 
 181     42473   977     149.8 
 182     49155   978     167.0 
 183     56839   980     235.0 
 184     65676   977     103.7 
 185     75839   981     103.7 
   1         1   156    -128.2 
   2         2   817     241.9 
   3         3   953     235.4 
   4         4   969     161.0 
   5         5   972     150.5 
   6         6   973     168.6 
   7         7   973     247.7 
   8         8   977     261.7 
   9         9   974     270.0 
  10        10   975     279.7 
  11        11   976     340.2 
  12        12   977     305.7 
  13        13   977     324.8 
  14        14   977     330.3 
  15        15   977     401.2 
  16        16   978     425.4 
  17        17   980     357.1 
  18        18   977     279.4 
  19        19   978     322.8 
  20        20   979     336.7 
  21        21   980     303.1 
  22        22   979     233.6 
  23        23   979     236.0 
  24        24   979     291.8 
  25        25   980     251.7 
  26        26   980     243.2 
  27        27   978     213.7 
  28        28   980     246.3 
  29        29   980     262.9 
  30        30   980     206.1 
  31        31   980     146.9 
  32        32   980     168.7 
  33        33   980     245.6 
  34        34   981     270.8 
  35        35   981     213.4 
  36        36   980     220.4 
  37        37   981     216.4 
  38        38   980     277.2 
  39        39   981     239.2 
  40        40   980     213.3 
  41        41   981     253.5 
  42        42   980     278.2 
  43        43   982     230.1 
  44        44   981     218.8 
  45        45   980     267.7 
  46        46   981     253.8 
  47        47   982     274.9 
  48        48   982     229.1 
  49        49   981     239.2 
  50        50   981     261.3 
  51        51   980     252.4 
  52        52   983     231.6 
  53        53   981     199.1 
  54        54   981     220.2 
  55        55   981     233.8 
  56        56   982     237.3 
  57        57   982     212.2 
  58        58   981     219.8 
  59        59   981     223.2 
  60        60   980     284.7 
  61        61   983     244.5 
  62        62   981     234.1 
  63        63   981     246.7 
  64        64   981     261.6 
  65        65   982     248.5 
  66        66   982     166.7 
  67        67   981     200.5 
  68        68   981     238.9 
  69        69   981     213.7 
  70        70   983     223.8 
  71        71   980     198.6 
  72        72   981     231.7 
  73        73   981     216.8 
  74        74   982     230.8 
  75        75   981     185.9 
  76        76   980     226.5 
  77        77   980     228.2 
  78        78   982     202.6 
  79        79   982     178.2 
  80        80   980     195.9 
  81        81   981     222.2 
  82        82   980     180.6 
  83        83   982     198.9 
  84        84   980     202.0 
  85        85   980     241.5 
  86        86   980     241.8 
  87        87   982     178.2 
  88        88   981     173.6 
  89        89   980     192.9 
  90        90   981     234.1 
  91        91   981     275.2 
  92        92   982     211.1 
  93        93   980     231.6 
  94        94   980     235.7 
  95        95   980     279.9 
  96        96   982     146.6 
  97        97   981     201.2 
  98        98   980     233.3 
  99        99   980     295.9 
 100       100   980     269.4 
 101       101   981     223.2 
 102       102   980     233.7 
 103       103   980     263.9 
 104       104   980     255.1 
 105       105   982     205.4 
 106       106   980     172.8 
 107       107   980     266.0 
 108       108   980     275.5 
 109       109   981     202.9 
 110       110   980     232.7 
 111       111   980     305.8 
 112       112   980     283.7 
 113       113   980     243.2 
 114       114   981     249.7 
 115       115   980     238.8 
 116       116   980     305.8 
 117       117   980     303.4 
 118       118   980     201.7 
 119       119   980     219.7 
 120       120   979     268.6 
 121       121   980     287.4 
 122       122   980     208.8 
 123       123   981     256.2 
 124       124   979     249.2 
 125       125   980     298.6 
 126       126   980     227.6 
 127       127   981     221.5 
 128       128   980     267.3 
 129       129   979     256.4 
 130       130   979     261.5 
 131       131   980     187.4 
 132       132   980     190.5 
 133       133   979     221.0 
 134       134   979     303.7 
 135       135   979     205.3 
 136       136   980     211.9 
 137       137   979     246.9 
 138       138   979     265.6 
 139       139   979     247.2 
 140       140   980     202.7 
 141       141   980     241.5 
 142       142   978     246.1 
 143       143   980     204.8 
 144       144   979     226.4 
 145       145   980     190.8 
 146       146   978     206.9 
 147       147   979     242.8 
 148       148   979     196.5 
 149       149   979     194.4 
 150       150   979     194.4 
 151       210  1000     151.0 
 152       270   997     243.7 
 153       330  1000      98.0 
 154       390   996     129.9 
 155       450   996     299.2 
 156       510   996     219.2 
 157       570   994      78.8 
 158       630   998     165.3 
 159       810   983     274.7 
 160       990   980     340.1 
 161      1170   985     110.7 
 162      1350   986     250.5 
 163      1530   981     255.9 
 164      2070   980     281.3 
 165      2691   973     255.9 
 166      3405   978     372.9 
 167      4226   978     265.8 
 168      5170   976     256.8 
 169      6256   975     191.1 
 170      7505   974     252.2 
 171      8941   977     206.8 
 172     10592   975     173.0 
 173     12491   973     226.1 
 174     14675   979     214.5 
 175     17187   975     204.1 
 176     20076   974     201.9 
 177     23398   977     194.5 
 178     27218   979     199.9 
 179     31611   980     289.1 
 180     36663   980     205.8 
 181     42473   977     198.6 
 182     49155   978     179.6 
 183     56839   980     291.5 
 184     65676   977     278.4 
 185     75839   981     278.4 
