PC/104 FIRe Fluorometer 2.0.0
 4/ 8/2025     39816
LED Color:           blue
Gain:               1700
Sample Delay (msec):    10
Number Samples:   3
STF (usec):      150
STRP (#samples):       35
STRI (usec):       60
MTF (ms):        0
MTF (#samples):     0
MTRP (#samples):        0
MTRI (usec):      100
PQLen:     4
Ambient Light Source Power: Off
PAR (uMol/m^2/s):498.90
Comment:
Depth(m):  -1.9
Temperature(C):  75.4
Battery(V):  14.08

         Time    EX   Fl-Yield 
DATA--------------------------
   0         0     0       0.0 
   1         1   156     316.2 
   2         2   817     251.7 
   3         3   953     256.7 
   4         4   969     277.9 
   5         5   972     289.8 
   6         6   973     292.6 
   7         7   973     282.6 
   8         8   977     276.0 
   9         9   974     302.2 
  10        10   975     322.7 
  11        11   976     318.6 
  12        12   977     327.5 
  13        13   977     309.8 
  14        14   977     344.3 
  15        15   977     362.3 
  16        16   978     319.0 
  17        17   980     380.3 
  18        18   977     374.3 
  19        19   978     381.7 
  20        20   979     362.3 
  21        21   980     355.4 
  22        22   979     381.3 
  23        23   979     406.9 
  24        24   979     394.6 
  25        25   980     370.4 
  26        26   980     387.1 
  27        27   978     408.3 
  28        28   980     405.8 
  29        29   980     399.3 
  30        30   980     415.0 
  31        31   980     425.2 
  32        32   980     404.1 
  33        33   980     408.5 
  34        34   981     416.6 
  35        35   981     443.1 
  36        36   980     440.8 
  37        37   981     434.3 
  38        38   980     410.5 
  39        39   981     434.6 
  40        40   980     439.8 
  41        41   981     441.0 
  42        42   980     433.7 
  43        43   982     434.8 
  44        44   981     450.9 
  45        45   980     447.3 
  46        46   981     441.4 
  47        47   982     437.5 
  48        48   982     452.1 
  49        49   981     460.1 
  50        50   981     441.4 
  51        51   980     433.3 
  52        52   983     453.7 
  53        53   981     466.9 
  54        54   981     443.1 
  55        55   981     449.5 
  56        56   982     415.8 
  57        57   982     443.7 
  58        58   981     441.7 
  59        59   981     461.1 
  60        60   980     444.2 
  61        61   983     449.3 
  62        62   981     442.7 
  63        63   981     443.1 
  64        64   981     446.1 
  65        65   982     436.2 
  66        66   982     461.0 
  67        67   981     459.4 
  68        68   981     424.1 
  69        69   981     447.8 
  70        70   983     456.8 
  71        71   980     455.4 
  72        72   981     468.9 
  73        73   981     423.0 
  74        74   982     441.6 
  75        75   981     489.6 
  76        76   980     465.6 
  77        77   980     462.9 
  78        78   982     445.7 
  79        79   982     452.1 
  80        80   980     481.3 
  81        81   981     445.8 
  82        82   980     455.1 
  83        83   982     467.4 
  84        84   980     456.5 
  85        85   980     465.3 
  86        86   980     450.0 
  87        87   982     466.7 
  88        88   981     457.7 
  89        89   980     475.2 
  90        90   981     454.0 
  91        91   981     458.0 
  92        92   982     462.0 
  93        93   980     470.1 
  94        94   980     434.4 
  95        95   980     438.8 
  96        96   982     458.2 
  97        97   981     447.5 
  98        98   980     465.0 
  99        99   980     443.9 
 100       100   980     495.2 
 101       101   981     464.5 
 102       102   980     449.0 
 103       103   980     468.4 
 104       104   980     443.2 
 105       105   982     469.1 
 106       106   980     476.9 
 107       107   980     461.9 
 108       108   980     467.0 
 109       109   981     453.6 
 110       110   980     475.5 
 111       111   980     482.7 
 112       112   980     450.3 
 113       113   980     470.7 
 114       114   981     468.2 
 115       115   980     478.9 
 116       116   980     483.3 
 117       117   980     478.6 
 118       118   980     505.1 
 119       119   980     502.7 
 120       120   979     475.7 
 121       121   980     480.3 
 122       122   980     493.9 
 123       123   981     480.8 
 124       124   979     488.6 
 125       125   980     463.6 
 126       126   980     500.3 
 127       127   981     500.2 
 128       128   980     501.7 
 129       129   979     491.0 
 130       130   979     499.8 
 131       131   980     478.9 
 132       132   980     520.7 
 133       133   979     480.4 
 134       134   979     484.5 
 135       135   979     508.3 
 136       136   980     507.8 
 137       137   979     485.9 
 138       138   979     490.0 
 139       139   979     508.0 
 140       140   980     499.3 
 141       141   980     489.8 
 142       142   978     485.3 
 143       143   980     469.7 
 144       144   979     505.3 
 145       145   980     472.4 
 146       146   978     513.6 
 147       147   979     490.3 
 148       148   979     495.1 
 149       149   979     478.7 
 150       150   979     478.7 
 151       210  1000     399.0 
 152       270   997     448.3 
 153       330  1000     445.7 
 154       390   996     446.5 
 155       450   996     377.5 
 156       510   996     413.3 
 157       570   994     398.7 
 158       630   998     470.9 
 159       810   983     368.3 
 160       990   980     344.6 
 161      1170   985     369.2 
 162      1350   986     349.2 
 163      1530   981     354.7 
 164      2070   980     276.2 
 165      2691   973     330.6 
 166      3405   978     322.4 
 167      4226   978     341.2 
 168      5170   976     332.3 
 169      6256   975     265.6 
 170      7505   974     264.5 
 171      8941   977     268.2 
 172     10592   975     300.9 
 173     12491   973     266.5 
 174     14675   979     288.4 
 175     17187   975     291.3 
 176     20076   974     295.3 
 177     23398   977     259.3 
 178     27218   979     316.6 
 179     31611   980     206.8 
 180     36663   980     272.8 
 181     42473   977     331.3 
 182     49155   978     316.3 
 183     56839   980     256.1 
 184     65676   977     292.7 
 185     75839   981     292.7 
   1         1   156     491.5 
   2         2   817     549.2 
   3         3   953     561.7 
   4         4   969     526.0 
   5         5   972     538.8 
   6         6   973     554.0 
   7         7   973     565.9 
   8         8   977     549.0 
   9         9   974     558.2 
  10        10   975     574.0 
  11        11   976     582.0 
  12        12   977     601.2 
  13        13   977     595.4 
  14        14   977     616.9 
  15        15   977     596.7 
  16        16   978     614.9 
  17        17   980     590.8 
  18        18   977     618.9 
  19        19   978     602.9 
  20        20   979     607.4 
  21        21   980     568.7 
  22        22   979     586.0 
  23        23   979     595.8 
  24        24   979     570.7 
  25        25   980     581.3 
  26        26   980     570.7 
  27        27   978     551.8 
  28        28   980     581.6 
  29        29   980     593.2 
  30        30   980     588.4 
  31        31   980     568.4 
  32        32   980     586.7 
  33        33   980     607.5 
  34        34   981     576.3 
  35        35   981     592.6 
  36        36   980     572.4 
  37        37   981     595.3 
  38        38   980     587.1 
  39        39   981     579.3 
  40        40   980     605.4 
  41        41   981     603.1 
  42        42   980     603.1 
  43        43   982     578.1 
  44        44   981     583.1 
  45        45   980     618.7 
  46        46   981     596.3 
  47        47   982     585.5 
  48        48   982     602.5 
  49        49   981     589.5 
  50        50   981     609.9 
  51        51   980     623.5 
  52        52   983     610.7 
  53        53   981     617.4 
  54        54   981     614.0 
  55        55   981     621.8 
  56        56   982     601.5 
  57        57   982     591.0 
  58        58   981     599.4 
  59        59   981     596.0 
  60        60   980     608.8 
  61        61   983     630.7 
  62        62   981     613.3 
  63        63   981     613.7 
  64        64   981     601.8 
  65        65   982     581.8 
  66        66   982     593.0 
  67        67   981     596.7 
  68        68   981     590.6 
  69        69   981     597.0 
  70        70   983     596.1 
  71        71   980     598.0 
  72        72   981     593.3 
  73        73   981     601.1 
  74        74   982     586.9 
  75        75   981     594.6 
  76        76   980     605.4 
  77        77   980     583.3 
  78        78   982     598.1 
  79        79   982     582.8 
  80        80   980     597.3 
  81        81   981     605.2 
  82        82   980     591.2 
  83        83   982     573.0 
  84        84   980     591.8 
  85        85   980     606.1 
  86        86   980     574.1 
  87        87   982     580.1 
  88        88   981     590.9 
  89        89   980     607.5 
  90        90   981     587.5 
  91        91   981     583.4 
  92        92   982     598.4 
  93        93   980     582.7 
  94        94   980     595.6 
  95        95   980     582.7 
  96        96   982     580.4 
  97        97   981     592.6 
  98        98   980     592.5 
  99        99   980     600.3 
 100       100   980     603.4 
 101       101   981     591.6 
 102       102   980     602.0 
 103       103   980     595.9 
 104       104   980     581.6 
 105       105   982     595.0 
 106       106   980     591.8 
 107       107   980     596.3 
 108       108   980     565.6 
 109       109   981     600.4 
 110       110   980     599.7 
 111       111   980     597.3 
 112       112   980     587.4 
 113       113   980     605.1 
 114       114   981     595.0 
 115       115   980     593.9 
 116       116   980     598.0 
 117       117   980     585.4 
 118       118   980     597.3 
 119       119   980     595.6 
 120       120   979     585.0 
 121       121   980     594.9 
 122       122   980     604.1 
 123       123   981     594.6 
 124       124   979     614.6 
 125       125   980     599.3 
 126       126   980     594.2 
 127       127   981     602.1 
 128       128   980     601.4 
 129       129   979     623.8 
 130       130   979     615.3 
 131       131   980     617.7 
 132       132   980     598.3 
 133       133   979     597.2 
 134       134   979     624.8 
 135       135   979     602.3 
 136       136   980     612.2 
 137       137   979     617.3 
 138       138   979     624.4 
 139       139   979     614.9 
 140       140   980     613.3 
 141       141   980     609.5 
 142       142   978     617.2 
 143       143   980     612.2 
 144       144   979     614.2 
 145       145   980     592.2 
 146       146   978     625.8 
 147       147   979     628.9 
 148       148   979     598.2 
 149       149   979     626.8 
 150       150   979     626.8 
 151       210  1000     569.0 
 152       270   997     594.1 
 153       330  1000     573.0 
 154       390   996     646.3 
 155       450   996     589.4 
 156       510   996     667.3 
 157       570   994     591.9 
 158       630   998     575.5 
 159       810   983     567.7 
 160       990   980     599.7 
 161      1170   985     539.8 
 162      1350   986     562.5 
 163      1530   981     601.8 
 164      2070   980     549.7 
 165      2691   973     551.9 
 166      3405   978     555.6 
 167      4226   978     486.0 
 168      5170   976     484.3 
 169      6256   975     492.0 
 170      7505   974     488.7 
 171      8941   977     444.2 
 172     10592   975     484.1 
 173     12491   973     463.9 
 174     14675   979     447.4 
 175     17187   975     493.0 
 176     20076   974     411.7 
 177     23398   977     382.5 
 178     27218   979     408.6 
 179     31611   980     322.1 
 180     36663   980     390.8 
 181     42473   977     371.5 
 182     49155   978     357.9 
 183     56839   980     349.0 
 184     65676   977     328.2 
 185     75839   981     328.2 
