PC/104 FIRe Fluorometer 2.0.0
 4/ 8/2025     33463
LED Color:           blue
Gain:               1800
Sample Delay (msec):    10
Number Samples:   3
STF (usec):      150
STRP (#samples):       35
STRI (usec):       60
MTF (ms):        0
MTF (#samples):     0
MTRP (#samples):        0
MTRI (usec):      100
PQLen:     4
Ambient Light Source Power: Off
PAR (uMol/m^2/s):441.00
Comment:
Depth(m):   1.7
Temperature(C):  67.0
Battery(V):  15.09

         Time    EX   Fl-Yield 
DATA--------------------------
   0         0     0       0.0 
   1         1   156     143.2 
   2         2   817     224.0 
   3         3   953     234.7 
   4         4   969     263.8 
   5         5   972     239.7 
   6         6   973     260.7 
   7         7   973     237.8 
   8         8   977     286.6 
   9         9   974     289.9 
  10        10   975     242.4 
  11        11   976     251.4 
  12        12   977     247.4 
  13        13   977     306.0 
  14        14   977     321.1 
  15        15   977     285.9 
  16        16   978     260.7 
  17        17   980     274.8 
  18        18   977     291.0 
  19        19   978     289.4 
  20        20   979     283.6 
  21        21   980     277.2 
  22        22   979     322.4 
  23        23   979     321.8 
  24        24   979     300.6 
  25        25   980     293.9 
  26        26   980     302.0 
  27        27   978     347.6 
  28        28   980     290.8 
  29        29   980     291.5 
  30        30   980     322.8 
  31        31   980     350.0 
  32        32   980     318.4 
  33        33   980     321.4 
  34        34   981     318.7 
  35        35   981     331.6 
  36        36   980     323.5 
  37        37   981     313.3 
  38        38   980     319.0 
  39        39   981     343.5 
  40        40   980     371.8 
  41        41   981     336.1 
  42        42   980     330.3 
  43        43   982     288.5 
  44        44   981     344.2 
  45        45   980     336.4 
  46        46   981     321.4 
  47        47   982     304.8 
  48        48   982     359.5 
  49        49   981     384.6 
  50        50   981     333.0 
  51        51   980     349.0 
  52        52   983     320.1 
  53        53   981     338.8 
  54        54   981     329.6 
  55        55   981     329.3 
  56        56   982     338.8 
  57        57   982     358.1 
  58        58   981     333.7 
  59        59   981     319.1 
  60        60   980     333.3 
  61        61   983     375.7 
  62        62   981     356.8 
  63        63   981     326.2 
  64        64   981     312.3 
  65        65   982     331.0 
  66        66   982     358.5 
  67        67   981     347.3 
  68        68   981     320.8 
  69        69   981     314.3 
  70        70   983     334.4 
  71        71   980     345.2 
  72        72   981     334.4 
  73        73   981     322.1 
  74        74   982     325.5 
  75        75   981     350.0 
  76        76   980     322.1 
  77        77   980     319.4 
  78        78   982     291.2 
  79        79   982     309.6 
  80        80   980     335.4 
  81        81   981     295.6 
  82        82   980     291.5 
  83        83   982     285.1 
  84        84   980     346.3 
  85        85   980     316.0 
  86        86   980     328.6 
  87        87   982     313.6 
  88        88   981     304.1 
  89        89   980     329.3 
  90        90   981     302.4 
  91        91   981     303.1 
  92        92   982     330.3 
  93        93   980     335.4 
  94        94   980     301.7 
  95        95   980     293.9 
  96        96   982     325.2 
  97        97   981     345.9 
  98        98   980     326.2 
  99        99   980     296.3 
 100       100   980     298.0 
 101       101   981     332.3 
 102       102   980     348.0 
 103       103   980     295.2 
 104       104   980     332.7 
 105       105   982     302.8 
 106       106   980     321.8 
 107       107   980     313.9 
 108       108   980     323.5 
 109       109   981     301.1 
 110       110   980     327.6 
 111       111   980     307.5 
 112       112   980     315.6 
 113       113   980     286.1 
 114       114   981     345.2 
 115       115   980     290.5 
 116       116   980     279.3 
 117       117   980     292.2 
 118       118   980     332.7 
 119       119   980     336.1 
 120       120   979     333.7 
 121       121   980     326.2 
 122       122   980     310.2 
 123       123   981     337.4 
 124       124   979     328.2 
 125       125   980     342.9 
 126       126   980     311.2 
 127       127   981     321.1 
 128       128   980     346.6 
 129       129   979     328.6 
 130       130   979     313.2 
 131       131   980     296.9 
 132       132   980     324.1 
 133       133   979     335.4 
 134       134   979     302.7 
 135       135   979     328.2 
 136       136   980     351.7 
 137       137   979     381.7 
 138       138   979     311.9 
 139       139   979     310.9 
 140       140   980     315.6 
 141       141   980     345.6 
 142       142   978     348.7 
 143       143   980     312.9 
 144       144   979     329.6 
 145       145   980     310.9 
 146       146   978     331.6 
 147       147   979     316.6 
 148       148   979     329.6 
 149       149   979     358.2 
 150       150   979     358.2 
 151       210  1000     336.7 
 152       270   997     280.5 
 153       330  1000     328.7 
 154       390   996     234.3 
 155       450   996     279.5 
 156       510   996     355.1 
 157       570   994     259.2 
 158       630   998     360.4 
 159       810   983     237.7 
 160       990   980     254.4 
 161      1170   985     346.5 
 162      1350   986     234.6 
 163      1530   981     274.2 
 164      2070   980     234.4 
 165      2691   973     364.2 
 166      3405   978     272.0 
 167      4226   978     348.0 
 168      5170   976     299.5 
 169      6256   975     229.7 
 170      7505   974     296.4 
 171      8941   977     230.3 
 172     10592   975     282.4 
 173     12491   973     220.6 
 174     14675   979     258.1 
 175     17187   975     253.0 
 176     20076   974     259.1 
 177     23398   977     284.5 
 178     27218   979     300.6 
 179     31611   980     273.5 
 180     36663   980     258.5 
 181     42473   977     316.3 
 182     49155   978     333.7 
 183     56839   980     339.1 
 184     65676   977     242.2 
 185     75839   981     242.2 
   1         1   156     156.0 
   2         2   817     337.4 
   3         3   953     326.7 
   4         4   969     325.8 
   5         5   972     330.9 
   6         6   973     336.1 
   7         7   973     355.6 
   8         8   977     333.7 
   9         9   974     350.8 
  10        10   975     368.5 
  11        11   976     338.8 
  12        12   977     380.1 
  13        13   977     395.1 
  14        14   977     415.2 
  15        15   977     400.5 
  16        16   978     355.5 
  17        17   980     360.9 
  18        18   977     383.8 
  19        19   978     422.6 
  20        20   979     368.4 
  21        21   980     358.2 
  22        22   979     355.5 
  23        23   979     371.5 
  24        24   979     345.9 
  25        25   980     340.5 
  26        26   980     333.0 
  27        27   978     347.6 
  28        28   980     353.1 
  29        29   980     305.4 
  30        30   980     331.3 
  31        31   980     334.7 
  32        32   980     324.5 
  33        33   980     337.8 
  34        34   981     333.7 
  35        35   981     345.2 
  36        36   980     363.3 
  37        37   981     344.9 
  38        38   980     336.4 
  39        39   981     370.4 
  40        40   980     347.3 
  41        41   981     333.7 
  42        42   980     348.0 
  43        43   982     356.4 
  44        44   981     353.4 
  45        45   980     340.1 
  46        46   981     341.1 
  47        47   982     354.7 
  48        48   982     363.5 
  49        49   981     351.3 
  50        50   981     349.6 
  51        51   980     347.6 
  52        52   983     356.1 
  53        53   981     367.7 
  54        54   981     384.0 
  55        55   981     360.9 
  56        56   982     310.3 
  57        57   982     343.5 
  58        58   981     360.5 
  59        59   981     362.9 
  60        60   980     336.4 
  61        61   983     351.0 
  62        62   981     360.9 
  63        63   981     348.3 
  64        64   981     345.6 
  65        65   982     325.5 
  66        66   982     339.8 
  67        67   981     367.0 
  68        68   981     339.4 
  69        69   981     313.6 
  70        70   983     322.8 
  71        71   980     362.6 
  72        72   981     380.6 
  73        73   981     333.7 
  74        74   982     335.4 
  75        75   981     354.4 
  76        76   980     348.0 
  77        77   980     343.5 
  78        78   982     332.0 
  79        79   982     343.2 
  80        80   980     360.5 
  81        81   981     328.9 
  82        82   980     323.1 
  83        83   982     352.3 
  84        84   980     364.6 
  85        85   980     360.2 
  86        86   980     327.2 
  87        87   982     338.1 
  88        88   981     319.4 
  89        89   980     367.0 
  90        90   981     380.2 
  91        91   981     350.0 
  92        92   982     347.9 
  93        93   980     341.2 
  94        94   980     379.6 
  95        95   980     301.7 
  96        96   982     357.4 
  97        97   981     364.9 
  98        98   980     363.9 
  99        99   980     357.8 
 100       100   980     359.5 
 101       101   981     352.7 
 102       102   980     376.9 
 103       103   980     346.9 
 104       104   980     348.3 
 105       105   982     353.0 
 106       106   980     377.2 
 107       107   980     368.4 
 108       108   980     381.3 
 109       109   981     334.4 
 110       110   980     356.8 
 111       111   980     406.1 
 112       112   980     376.2 
 113       113   980     362.2 
 114       114   981     355.8 
 115       115   980     376.9 
 116       116   980     393.5 
 117       117   980     347.6 
 118       118   980     354.8 
 119       119   980     379.9 
 120       120   979     385.4 
 121       121   980     366.7 
 122       122   980     359.2 
 123       123   981     406.0 
 124       124   979     398.4 
 125       125   980     365.3 
 126       126   980     354.8 
 127       127   981     354.4 
 128       128   980     333.0 
 129       129   979     359.2 
 130       130   979     373.9 
 131       131   980     338.4 
 132       132   980     364.6 
 133       133   979     371.5 
 134       134   979     376.9 
 135       135   979     334.4 
 136       136   980     341.8 
 137       137   979     360.2 
 138       138   979     331.6 
 139       139   979     354.8 
 140       140   980     331.0 
 141       141   980     354.1 
 142       142   978     360.6 
 143       143   980     368.7 
 144       144   979     320.7 
 145       145   980     349.0 
 146       146   978     358.6 
 147       147   979     397.7 
 148       148   979     361.6 
 149       149   979     389.2 
 150       150   979     389.2 
 151       210  1000     361.0 
 152       270   997     365.8 
 153       330  1000     415.7 
 154       390   996     351.1 
 155       450   996     420.7 
 156       510   996     309.9 
 157       570   994     414.5 
 158       630   998     383.4 
 159       810   983     339.8 
 160       990   980     403.1 
 161      1170   985     392.9 
 162      1350   986     354.0 
 163      1530   981     338.8 
 164      2070   980     370.1 
 165      2691   973     400.8 
 166      3405   978     377.0 
 167      4226   978     429.1 
 168      5170   976     329.6 
 169      6256   975     358.6 
 170      7505   974     365.5 
 171      8941   977     366.4 
 172     10592   975     377.1 
 173     12491   973     401.2 
 174     14675   979     417.4 
 175     17187   975     401.4 
 176     20076   974     344.6 
 177     23398   977     366.1 
 178     27218   979     271.0 
 179     31611   980     383.0 
 180     36663   980     345.6 
 181     42473   977     354.8 
 182     49155   978     311.2 
 183     56839   980     257.8 
 184     65676   977     386.2 
 185     75839   981     386.2 
