PC/104 FIRe Fluorometer 2.0.0
 4/ 8/2025     29380
LED Color:           blue
Gain:               1700
Sample Delay (msec):    10
Number Samples:   3
STF (usec):      150
STRP (#samples):       35
STRI (usec):       60
MTF (ms):        0
MTF (#samples):     0
MTRP (#samples):        0
MTRI (usec):      100
PQLen:     4
Ambient Light Source Power: Off
PAR (uMol/m^2/s):557.72
Comment:
Depth(m):   3.0
Temperature(C):  51.8
Battery(V):  16.01

         Time    EX   Fl-Yield 
DATA--------------------------
   0         0     0       0.0 
   1         1   156     217.9 
   2         2   817     246.4 
   3         3   953     238.2 
   4         4   969     247.0 
   5         5   972     261.3 
   6         6   973     262.4 
   7         7   973     292.6 
   8         8   977     273.3 
   9         9   974     283.7 
  10        10   975     265.6 
  11        11   976     273.2 
  12        12   977     276.4 
  13        13   977     304.3 
  14        14   977     303.0 
  15        15   977     283.9 
  16        16   978     314.9 
  17        17   980     278.2 
  18        18   977     312.5 
  19        19   978     292.4 
  20        20   979     323.8 
  21        21   980     300.3 
  22        22   979     305.4 
  23        23   979     331.3 
  24        24   979     291.8 
  25        25   980     339.1 
  26        26   980     344.2 
  27        27   978     345.3 
  28        28   980     321.8 
  29        29   980     309.5 
  30        30   980     335.7 
  31        31   980     321.1 
  32        32   980     340.5 
  33        33   980     350.0 
  34        34   981     341.8 
  35        35   981     315.3 
  36        36   980     355.4 
  37        37   981     326.2 
  38        38   980     372.8 
  39        39   981     339.4 
  40        40   980     352.7 
  41        41   981     378.2 
  42        42   980     354.8 
  43        43   982     360.5 
  44        44   981     362.6 
  45        45   980     389.1 
  46        46   981     352.4 
  47        47   982     373.0 
  48        48   982     363.9 
  49        49   981     381.6 
  50        50   981     389.1 
  51        51   980     384.7 
  52        52   983     367.9 
  53        53   981     400.6 
  54        54   981     386.0 
  55        55   981     377.5 
  56        56   982     401.9 
  57        57   982     367.6 
  58        58   981     381.9 
  59        59   981     401.0 
  60        60   980     350.3 
  61        61   983     390.0 
  62        62   981     358.1 
  63        63   981     396.9 
  64        64   981     394.2 
  65        65   982     398.8 
  66        66   982     402.9 
  67        67   981     409.8 
  68        68   981     374.1 
  69        69   981     370.4 
  70        70   983     391.3 
  71        71   980     394.2 
  72        72   981     409.1 
  73        73   981     346.9 
  74        74   982     366.3 
  75        75   981     380.9 
  76        76   980     375.5 
  77        77   980     384.4 
  78        78   982     397.8 
  79        79   982     371.0 
  80        80   980     354.1 
  81        81   981     365.6 
  82        82   980     341.5 
  83        83   982     374.4 
  84        84   980     368.0 
  85        85   980     392.9 
  86        86   980     374.1 
  87        87   982     387.0 
  88        88   981     378.5 
  89        89   980     403.7 
  90        90   981     410.5 
  91        91   981     370.4 
  92        92   982     379.5 
  93        93   980     371.4 
  94        94   980     412.2 
  95        95   980     388.8 
  96        96   982     363.5 
  97        97   981     389.4 
  98        98   980     392.9 
  99        99   980     386.4 
 100       100   980     377.2 
 101       101   981     380.2 
 102       102   980     376.9 
 103       103   980     407.5 
 104       104   980     369.7 
 105       105   982     384.2 
 106       106   980     415.6 
 107       107   980     372.8 
 108       108   980     387.8 
 109       109   981     381.2 
 110       110   980     371.1 
 111       111   980     421.1 
 112       112   980     414.3 
 113       113   980     392.5 
 114       114   981     408.8 
 115       115   980     391.2 
 116       116   980     408.8 
 117       117   980     396.3 
 118       118   980     396.6 
 119       119   980     400.7 
 120       120   979     407.6 
 121       121   980     406.1 
 122       122   980     403.4 
 123       123   981     421.3 
 124       124   979     389.2 
 125       125   980     413.9 
 126       126   980     403.7 
 127       127   981     410.8 
 128       128   980     379.9 
 129       129   979     431.1 
 130       130   979     413.7 
 131       131   980     386.4 
 132       132   980     394.9 
 133       133   979     389.2 
 134       134   979     416.1 
 135       135   979     407.9 
 136       136   980     399.3 
 137       137   979     390.2 
 138       138   979     370.4 
 139       139   979     386.4 
 140       140   980     374.8 
 141       141   980     389.5 
 142       142   978     407.0 
 143       143   980     409.5 
 144       144   979     390.2 
 145       145   980     392.5 
 146       146   978     397.4 
 147       147   979     404.8 
 148       148   979     389.2 
 149       149   979     386.8 
 150       150   979     386.8 
 151       210  1000     372.7 
 152       270   997     386.2 
 153       330  1000     293.0 
 154       390   996     329.7 
 155       450   996     303.9 
 156       510   996     315.6 
 157       570   994     322.6 
 158       630   998     301.3 
 159       810   983     339.1 
 160       990   980     332.7 
 161      1170   985     311.7 
 162      1350   986     302.6 
 163      1530   981     255.5 
 164      2070   980     244.6 
 165      2691   973     304.9 
 166      3405   978     240.6 
 167      4226   978     247.4 
 168      5170   976     203.9 
 169      6256   975     334.0 
 170      7505   974     262.1 
 171      8941   977     284.2 
 172     10592   975     314.9 
 173     12491   973     315.2 
 174     14675   979     206.0 
 175     17187   975     216.1 
 176     20076   974     195.4 
 177     23398   977     260.7 
 178     27218   979     212.8 
 179     31611   980     191.8 
 180     36663   980     217.7 
 181     42473   977     318.3 
 182     49155   978     276.1 
 183     56839   980     259.9 
 184     65676   977     235.8 
 185     75839   981     235.8 
   1         1   156     324.8 
   2         2   817     477.8 
   3         3   953     481.6 
   4         4   969     474.7 
   5         5   972     455.4 
   6         6   973     462.5 
   7         7   973     477.2 
   8         8   977     474.2 
   9         9   974     463.4 
  10        10   975     479.3 
  11        11   976     503.4 
  12        12   977     507.7 
  13        13   977     524.1 
  14        14   977     541.5 
  15        15   977     550.0 
  16        16   978     533.7 
  17        17   980     517.7 
  18        18   977     499.8 
  19        19   978     507.8 
  20        20   979     524.7 
  21        21   980     503.1 
  22        22   979     480.1 
  23        23   979     469.2 
  24        24   979     510.4 
  25        25   980     474.5 
  26        26   980     491.5 
  27        27   978     480.9 
  28        28   980     490.1 
  29        29   980     529.6 
  30        30   980     474.1 
  31        31   980     467.0 
  32        32   980     496.9 
  33        33   980     489.5 
  34        34   981     487.9 
  35        35   981     481.8 
  36        36   980     499.0 
  37        37   981     489.6 
  38        38   980     506.5 
  39        39   981     491.7 
  40        40   980     496.3 
  41        41   981     495.8 
  42        42   980     510.2 
  43        43   982     512.6 
  44        44   981     512.1 
  45        45   980     492.9 
  46        46   981     542.0 
  47        47   982     526.5 
  48        48   982     524.4 
  49        49   981     519.9 
  50        50   981     537.5 
  51        51   980     539.5 
  52        52   983     526.6 
  53        53   981     540.3 
  54        54   981     537.2 
  55        55   981     567.8 
  56        56   982     536.0 
  57        57   982     550.6 
  58        58   981     528.7 
  59        59   981     551.5 
  60        60   980     567.3 
  61        61   983     546.3 
  62        62   981     541.6 
  63        63   981     554.5 
  64        64   981     573.6 
  65        65   982     579.4 
  66        66   982     551.9 
  67        67   981     527.4 
  68        68   981     562.0 
  69        69   981     568.8 
  70        70   983     561.2 
  71        71   980     548.3 
  72        72   981     553.5 
  73        73   981     584.1 
  74        74   982     557.4 
  75        75   981     549.1 
  76        76   980     549.0 
  77        77   980     585.4 
  78        78   982     546.8 
  79        79   982     554.3 
  80        80   980     540.5 
  81        81   981     559.3 
  82        82   980     551.7 
  83        83   982     563.1 
  84        84   980     538.4 
  85        85   980     540.1 
  86        86   980     549.3 
  87        87   982     548.2 
  88        88   981     545.7 
  89        89   980     539.8 
  90        90   981     548.1 
  91        91   981     556.6 
  92        92   982     543.4 
  93        93   980     527.2 
  94        94   980     522.4 
  95        95   980     575.9 
  96        96   982     543.1 
  97        97   981     512.1 
  98        98   980     514.3 
  99        99   980     523.1 
 100       100   980     551.7 
 101       101   981     524.3 
 102       102   980     523.8 
 103       103   980     539.5 
 104       104   980     551.7 
 105       105   982     557.0 
 106       106   980     515.3 
 107       107   980     541.8 
 108       108   980     548.3 
 109       109   981     556.9 
 110       110   980     534.7 
 111       111   980     510.9 
 112       112   980     538.8 
 113       113   980     533.7 
 114       114   981     546.7 
 115       115   980     516.0 
 116       116   980     526.5 
 117       117   980     524.5 
 118       118   980     546.9 
 119       119   980     526.9 
 120       120   979     495.4 
 121       121   980     498.0 
 122       122   980     536.1 
 123       123   981     510.7 
 124       124   979     521.6 
 125       125   980     497.3 
 126       126   980     534.7 
 127       127   981     490.7 
 128       128   980     499.7 
 129       129   979     511.4 
 130       130   979     499.8 
 131       131   980     513.9 
 132       132   980     520.7 
 133       133   979     517.2 
 134       134   979     503.2 
 135       135   979     537.6 
 136       136   980     522.1 
 137       137   979     525.7 
 138       138   979     498.8 
 139       139   979     529.5 
 140       140   980     522.8 
 141       141   980     529.3 
 142       142   978     513.0 
 143       143   980     494.9 
 144       144   979     520.9 
 145       145   980     517.7 
 146       146   978     531.0 
 147       147   979     499.8 
 148       148   979     523.7 
 149       149   979     531.8 
 150       150   979     531.8 
 151       210  1000     565.3 
 152       270   997     468.7 
 153       330  1000     493.3 
 154       390   996     445.8 
 155       450   996     514.1 
 156       510   996     459.2 
 157       570   994     515.8 
 158       630   998     459.9 
 159       810   983     574.4 
 160       990   980     492.2 
 161      1170   985     483.6 
 162      1350   986     510.5 
 163      1530   981     537.2 
 164      2070   980     476.2 
 165      2691   973     536.5 
 166      3405   978     512.3 
 167      4226   978     457.4 
 168      5170   976     499.0 
 169      6256   975     403.8 
 170      7505   974     454.1 
 171      8941   977     475.3 
 172     10592   975     462.9 
 173     12491   973     493.3 
 174     14675   979     414.7 
 175     17187   975     353.5 
 176     20076   974     385.4 
 177     23398   977     328.2 
 178     27218   979     455.2 
 179     31611   980     332.7 
 180     36663   980     356.5 
 181     42473   977     371.9 
 182     49155   978     302.3 
 183     56839   980     247.3 
 184     65676   977     329.6 
 185     75839   981     329.6 
