PC/104 FIRe Fluorometer 2.0.0
 4/ 8/2025     37098
LED Color:           blue
Gain:               1600
Sample Delay (msec):    10
Number Samples:   3
STF (usec):      150
STRP (#samples):       35
STRI (usec):       60
MTF (ms):        0
MTF (#samples):     0
MTRP (#samples):        0
MTRI (usec):      100
PQLen:     4
Ambient Light Source Power: Off
PAR (uMol/m^2/s):506.07
Comment:
Depth(m):  -0.6
Temperature(C):  72.2
Battery(V):  14.38

         Time    EX   Fl-Yield 
DATA--------------------------
   0         0     0       0.0 
   1         1   156     -17.1 
   2         2   817     200.7 
   3         3   953     192.7 
   4         4   969     197.1 
   5         5   972     187.2 
   6         6   973     198.4 
   7         7   973     193.9 
   8         8   977     196.5 
   9         9   974     208.8 
  10        10   975     210.9 
  11        11   976     208.3 
  12        12   977     192.1 
  13        13   977     218.4 
  14        14   977     211.9 
  15        15   977     210.5 
  16        16   978     205.5 
  17        17   980     207.8 
  18        18   977     221.1 
  19        19   978     201.8 
  20        20   979     222.3 
  21        21   980     208.5 
  22        22   979     217.2 
  23        23   979     210.1 
  24        24   979     213.1 
  25        25   980     219.0 
  26        26   980     240.5 
  27        27   978     222.9 
  28        28   980     237.1 
  29        29   980     231.0 
  30        30   980     241.5 
  31        31   980     239.5 
  32        32   980     234.0 
  33        33   980     248.3 
  34        34   981     227.0 
  35        35   981     231.4 
  36        36   980     233.7 
  37        37   981     250.4 
  38        38   980     227.2 
  39        39   981     247.7 
  40        40   980     256.8 
  41        41   981     241.6 
  42        42   980     221.8 
  43        43   982     241.0 
  44        44   981     248.0 
  45        45   980     250.7 
  46        46   981     245.3 
  47        47   982     249.8 
  48        48   982     226.1 
  49        49   981     255.9 
  50        50   981     274.2 
  51        51   980     250.7 
  52        52   983     256.0 
  53        53   981     245.7 
  54        54   981     248.7 
  55        55   981     257.2 
  56        56   982     249.5 
  57        57   982     263.4 
  58        58   981     255.5 
  59        59   981     262.0 
  60        60   980     271.4 
  61        61   983     264.8 
  62        62   981     274.2 
  63        63   981     272.9 
  64        64   981     283.7 
  65        65   982     282.4 
  66        66   982     285.8 
  67        67   981     275.6 
  68        68   981     277.9 
  69        69   981     272.2 
  70        70   983     287.2 
  71        71   980     290.8 
  72        72   981     283.0 
  73        73   981     282.0 
  74        74   982     263.1 
  75        75   981     292.9 
  76        76   980     281.0 
  77        77   980     265.3 
  78        78   982     267.8 
  79        79   982     277.7 
  80        80   980     272.8 
  81        81   981     285.4 
  82        82   980     269.0 
  83        83   982     257.0 
  84        84   980     261.2 
  85        85   980     273.8 
  86        86   980     266.3 
  87        87   982     263.7 
  88        88   981     279.0 
  89        89   980     272.8 
  90        90   981     262.7 
  91        91   981     263.3 
  92        92   982     266.5 
  93        93   980     285.0 
  94        94   980     287.8 
  95        95   980     267.3 
  96        96   982     274.3 
  97        97   981     267.8 
  98        98   980     265.6 
  99        99   980     278.2 
 100       100   980     263.3 
 101       101   981     288.5 
 102       102   980     277.2 
 103       103   980     280.6 
 104       104   980     278.2 
 105       105   982     278.3 
 106       106   980     262.9 
 107       107   980     277.9 
 108       108   980     281.3 
 109       109   981     274.2 
 110       110   980     278.9 
 111       111   980     267.0 
 112       112   980     283.7 
 113       113   980     277.2 
 114       114   981     246.7 
 115       115   980     278.2 
 116       116   980     282.3 
 117       117   980     273.8 
 118       118   980     270.1 
 119       119   980     268.0 
 120       120   979     279.9 
 121       121   980     275.2 
 122       122   980     284.0 
 123       123   981     269.5 
 124       124   979     262.2 
 125       125   980     260.5 
 126       126   980     271.1 
 127       127   981     271.5 
 128       128   980     253.4 
 129       129   979     265.9 
 130       130   979     258.8 
 131       131   980     249.7 
 132       132   980     255.4 
 133       133   979     262.2 
 134       134   979     243.8 
 135       135   979     237.3 
 136       136   980     260.5 
 137       137   979     260.5 
 138       138   979     269.7 
 139       139   979     249.6 
 140       140   980     250.7 
 141       141   980     258.8 
 142       142   978     255.3 
 143       143   980     256.1 
 144       144   979     265.2 
 145       145   980     262.6 
 146       146   978     260.4 
 147       147   979     264.2 
 148       148   979     259.1 
 149       149   979     261.5 
 150       150   979     261.5 
 151       210  1000     282.0 
 152       270   997     238.0 
 153       330  1000     265.3 
 154       390   996     240.6 
 155       450   996     267.4 
 156       510   996     226.2 
 157       570   994     313.5 
 158       630   998     238.8 
 159       810   983     302.8 
 160       990   980     235.7 
 161      1170   985     238.9 
 162      1350   986     218.1 
 163      1530   981     204.2 
 164      2070   980     241.2 
 165      2691   973     221.3 
 166      3405   978     239.6 
 167      4226   978     227.7 
 168      5170   976     207.3 
 169      6256   975     236.2 
 170      7505   974     201.2 
 171      8941   977     219.7 
 172     10592   975     185.6 
 173     12491   973     210.3 
 174     14675   979     207.0 
 175     17187   975     202.7 
 176     20076   974     207.0 
 177     23398   977     220.1 
 178     27218   979     190.3 
 179     31611   980     175.2 
 180     36663   980     252.4 
 181     42473   977     213.6 
 182     49155   978     196.3 
 183     56839   980     196.9 
 184     65676   977     212.6 
 185     75839   981     212.6 
   1         1   156     235.0 
   2         2   817     354.1 
   3         3   953     354.7 
   4         4   969     343.3 
   5         5   972     349.1 
   6         6   973     361.4 
   7         7   973     357.7 
   8         8   977     333.3 
   9         9   974     369.3 
  10        10   975     368.9 
  11        11   976     398.9 
  12        12   977     396.8 
  13        13   977     389.3 
  14        14   977     384.5 
  15        15   977     411.1 
  16        16   978     408.7 
  17        17   980     409.5 
  18        18   977     398.2 
  19        19   978     386.2 
  20        20   979     398.7 
  21        21   980     384.0 
  22        22   979     386.1 
  23        23   979     380.7 
  24        24   979     387.8 
  25        25   980     366.0 
  26        26   980     383.0 
  27        27   978     380.7 
  28        28   980     388.4 
  29        29   980     373.8 
  30        30   980     405.8 
  31        31   980     363.6 
  32        32   980     384.4 
  33        33   980     376.9 
  34        34   981     372.7 
  35        35   981     376.1 
  36        36   980     378.2 
  37        37   981     383.6 
  38        38   980     365.3 
  39        39   981     391.1 
  40        40   980     383.0 
  41        41   981     389.4 
  42        42   980     372.1 
  43        43   982     374.1 
  44        44   981     377.8 
  45        45   980     374.5 
  46        46   981     395.2 
  47        47   982     368.3 
  48        48   982     392.1 
  49        49   981     356.1 
  50        50   981     374.1 
  51        51   980     386.4 
  52        52   983     377.1 
  53        53   981     372.7 
  54        54   981     379.5 
  55        55   981     367.3 
  56        56   982     367.6 
  57        57   982     366.9 
  58        58   981     390.8 
  59        59   981     387.4 
  60        60   980     374.1 
  61        61   983     361.1 
  62        62   981     364.9 
  63        63   981     391.8 
  64        64   981     374.1 
  65        65   982     383.2 
  66        66   982     353.0 
  67        67   981     363.6 
  68        68   981     365.6 
  69        69   981     372.1 
  70        70   983     372.3 
  71        71   980     383.0 
  72        72   981     363.6 
  73        73   981     384.3 
  74        74   982     375.4 
  75        75   981     358.8 
  76        76   980     391.8 
  77        77   980     365.0 
  78        78   982     369.3 
  79        79   982     356.1 
  80        80   980     368.7 
  81        81   981     369.7 
  82        82   980     351.0 
  83        83   982     367.6 
  84        84   980     356.8 
  85        85   980     362.2 
  86        86   980     363.3 
  87        87   982     359.5 
  88        88   981     357.5 
  89        89   980     374.8 
  90        90   981     356.4 
  91        91   981     345.6 
  92        92   982     368.6 
  93        93   980     364.3 
  94        94   980     362.2 
  95        95   980     358.2 
  96        96   982     354.4 
  97        97   981     342.2 
  98        98   980     381.6 
  99        99   980     348.0 
 100       100   980     358.5 
 101       101   981     348.3 
 102       102   980     332.7 
 103       103   980     371.4 
 104       104   980     359.5 
 105       105   982     363.5 
 106       106   980     357.8 
 107       107   980     348.6 
 108       108   980     329.3 
 109       109   981     349.3 
 110       110   980     355.1 
 111       111   980     372.4 
 112       112   980     366.7 
 113       113   980     359.9 
 114       114   981     363.2 
 115       115   980     343.2 
 116       116   980     346.6 
 117       117   980     360.5 
 118       118   980     369.0 
 119       119   980     369.7 
 120       120   979     372.1 
 121       121   980     363.6 
 122       122   980     374.8 
 123       123   981     364.9 
 124       124   979     391.9 
 125       125   980     368.0 
 126       126   980     361.9 
 127       127   981     383.6 
 128       128   980     380.3 
 129       129   979     392.2 
 130       130   979     363.6 
 131       131   980     376.5 
 132       132   980     379.3 
 133       133   979     384.7 
 134       134   979     396.7 
 135       135   979     373.9 
 136       136   980     366.0 
 137       137   979     377.9 
 138       138   979     365.7 
 139       139   979     384.4 
 140       140   980     384.7 
 141       141   980     388.8 
 142       142   978     395.4 
 143       143   980     388.8 
 144       144   979     397.0 
 145       145   980     394.2 
 146       146   978     408.3 
 147       147   979     379.6 
 148       148   979     380.0 
 149       149   979     395.0 
 150       150   979     395.0 
 151       210  1000     330.0 
 152       270   997     360.4 
 153       330  1000     353.7 
 154       390   996     430.1 
 155       450   996     364.8 
 156       510   996     364.1 
 157       570   994     350.8 
 158       630   998     408.1 
 159       810   983     360.1 
 160       990   980     382.0 
 161      1170   985     361.4 
 162      1350   986     331.6 
 163      1530   981     357.5 
 164      2070   980     347.6 
 165      2691   973     395.7 
 166      3405   978     378.7 
 167      4226   978     348.0 
 168      5170   976     354.2 
 169      6256   975     324.4 
 170      7505   974     325.8 
 171      8941   977     306.7 
 172     10592   975     280.7 
 173     12491   973     320.3 
 174     14675   979     321.4 
 175     17187   975     343.2 
 176     20076   974     348.0 
 177     23398   977     301.3 
 178     27218   979     317.0 
 179     31611   980     304.8 
 180     36663   980     299.7 
 181     42473   977     262.4 
 182     49155   978     248.1 
 183     56839   980     265.3 
 184     65676   977     243.6 
 185     75839   981     243.6 
