PC/104 FIRe Fluorometer 2.0.0
 4/ 8/2025     26603
LED Color:           blue
Gain:               1900
Sample Delay (msec):    10
Number Samples:   3
STF (usec):      150
STRP (#samples):       35
STRI (usec):       60
MTF (ms):        0
MTF (#samples):     0
MTRP (#samples):        0
MTRI (usec):      100
PQLen:     4
Ambient Light Source Power: Off
PAR (uMol/m^2/s):666.06
Comment:
Depth(m):   3.7
Temperature(C):  37.2
Battery(V):  16.62

         Time    EX   Fl-Yield 
DATA--------------------------
   0         0     0       0.0 
   1         1   156     -34.2 
   2         2   817     215.4 
   3         3   953     255.3 
   4         4   969     265.6 
   5         5   972     264.4 
   6         6   973     275.8 
   7         7   973     292.6 
   8         8   977     321.4 
   9         9   974     286.4 
  10        10   975     274.5 
  11        11   976     342.9 
  12        12   977     339.1 
  13        13   977     391.7 
  14        14   977     276.7 
  15        15   977     354.5 
  16        16   978     372.5 
  17        17   980     377.9 
  18        18   977     339.5 
  19        19   978     386.2 
  20        20   979     378.3 
  21        21   980     354.8 
  22        22   979     368.7 
  23        23   979     352.4 
  24        24   979     386.1 
  25        25   980     377.9 
  26        26   980     339.8 
  27        27   978     347.6 
  28        28   980     394.9 
  29        29   980     404.8 
  30        30   980     386.4 
  31        31   980     343.5 
  32        32   980     372.8 
  33        33   980     401.7 
  34        34   981     389.4 
  35        35   981     393.5 
  36        36   980     374.5 
  37        37   981     379.2 
  38        38   980     405.4 
  39        39   981     373.1 
  40        40   980     375.5 
  41        41   981     375.1 
  42        42   980     447.3 
  43        43   982     385.6 
  44        44   981     373.1 
  45        45   980     338.8 
  46        46   981     417.9 
  47        47   982     374.1 
  48        48   982     385.6 
  49        49   981     375.8 
  50        50   981     354.1 
  51        51   980     361.6 
  52        52   983     377.8 
  53        53   981     345.2 
  54        54   981     321.1 
  55        55   981     360.9 
  56        56   982     388.0 
  57        57   982     379.2 
  58        58   981     362.6 
  59        59   981     362.9 
  60        60   980     410.2 
  61        61   983     366.2 
  62        62   981     319.4 
  63        63   981     388.4 
  64        64   981     405.4 
  65        65   982     392.1 
  66        66   982     364.9 
  67        67   981     387.0 
  68        68   981     388.4 
  69        69   981     340.1 
  70        70   983     354.7 
  71        71   980     380.6 
  72        72   981     401.3 
  73        73   981     423.0 
  74        74   982     355.7 
  75        75   981     424.7 
  76        76   980     424.8 
  77        77   980     372.1 
  78        78   982     362.9 
  79        79   982     368.6 
  80        80   980     384.4 
  81        81   981     409.1 
  82        82   980     335.0 
  83        83   982     333.0 
  84        84   980     316.3 
  85        85   980     357.5 
  86        86   980     391.5 
  87        87   982     327.9 
  88        88   981     355.1 
  89        89   980     332.3 
  90        90   981     348.6 
  91        91   981     323.8 
  92        92   982     288.2 
  93        93   980     338.8 
  94        94   980     363.3 
  95        95   980     333.0 
  96        96   982     299.7 
  97        97   981     348.3 
  98        98   980     310.5 
  99        99   980     342.5 
 100       100   980     296.6 
 101       101   981     360.9 
 102       102   980     347.6 
 103       103   980     416.7 
 104       104   980     318.7 
 105       105   982     377.1 
 106       106   980     323.5 
 107       107   980     385.4 
 108       108   980     354.4 
 109       109   981     318.0 
 110       110   980     393.9 
 111       111   980     410.5 
 112       112   980     373.1 
 113       113   980     355.8 
 114       114   981     360.9 
 115       115   980     406.1 
 116       116   980     359.5 
 117       117   980     338.4 
 118       118   980     387.1 
 119       119   980     394.2 
 120       120   979     400.1 
 121       121   980     302.7 
 122       122   980     340.1 
 123       123   981     373.8 
 124       124   979     403.8 
 125       125   980     368.4 
 126       126   980     372.1 
 127       127   981     406.0 
 128       128   980     352.4 
 129       129   979     401.8 
 130       130   979     373.5 
 131       131   980     363.9 
 132       132   980     395.2 
 133       133   979     431.1 
 134       134   979     349.0 
 135       135   979     343.2 
 136       136   980     431.6 
 137       137   979     405.2 
 138       138   979     412.0 
 139       139   979     393.6 
 140       140   980     421.8 
 141       141   980     409.5 
 142       142   978     410.4 
 143       143   980     424.5 
 144       144   979     430.7 
 145       145   980     408.8 
 146       146   978     445.5 
 147       147   979     373.9 
 148       148   979     355.8 
 149       149   979     446.7 
 150       150   979     446.7 
 151       210  1000     102.0 
 152       270   997     328.0 
 153       330  1000     278.7 
 154       390   996     415.7 
 155       450   996     244.6 
 156       510   996     385.5 
 157       570   994     328.3 
 158       630   998     463.3 
 159       810   983     295.7 
 160       990   980     340.5 
 161      1170   985     217.6 
 162      1350   986     314.7 
 163      1530   981     307.5 
 164      2070   980     237.1 
 165      2691   973     258.7 
 166      3405   978     225.3 
 167      4226   978     244.4 
 168      5170   976     134.6 
 169      6256   975     251.3 
 170      7505   974     320.3 
 171      8941   977     244.6 
 172     10592   975     336.8 
 173     12491   973     485.1 
 174     14675   979     156.6 
 175     17187   975     347.0 
 176     20076   974     343.3 
 177     23398   977     251.8 
 178     27218   979     332.3 
 179     31611   980     225.5 
 180     36663   980     332.7 
 181     42473   977     217.7 
 182     49155   978     181.3 
 183     56839   980     256.8 
 184     65676   977     277.4 
 185     75839   981     277.4 
   1         1   156     217.9 
   2         2   817     330.9 
   3         3   953     329.8 
   4         4   969     358.1 
   5         5   972     295.3 
   6         6   973     308.0 
   7         7   973     335.4 
   8         8   977     404.0 
   9         9   974     439.4 
  10        10   975     393.5 
  11        11   976     444.3 
  12        12   977     494.4 
  13        13   977     525.4 
  14        14   977     538.0 
  15        15   977     494.4 
  16        16   978     527.6 
  17        17   980     543.9 
  18        18   977     517.9 
  19        19   978     412.7 
  20        20   979     440.6 
  21        21   980     456.1 
  22        22   979     442.6 
  23        23   979     448.4 
  24        24   979     437.2 
  25        25   980     371.8 
  26        26   980     462.6 
  27        27   978     382.8 
  28        28   980     421.4 
  29        29   980     374.8 
  30        30   980     447.6 
  31        31   980     443.2 
  32        32   980     383.7 
  33        33   980     388.8 
  34        34   981     449.9 
  35        35   981     470.9 
  36        36   980     387.8 
  37        37   981     420.3 
  38        38   980     462.9 
  39        39   981     491.3 
  40        40   980     418.7 
  41        41   981     443.4 
  42        42   980     463.6 
  43        43   982     527.5 
  44        44   981     484.5 
  45        45   980     420.7 
  46        46   981     458.4 
  47        47   982     510.2 
  48        48   982     474.5 
  49        49   981     443.1 
  50        50   981     464.2 
  51        51   980     508.8 
  52        52   983     492.0 
  53        53   981     454.3 
  54        54   981     426.4 
  55        55   981     442.7 
  56        56   982     537.0 
  57        57   982     464.4 
  58        58   981     389.4 
  59        59   981     432.6 
  60        60   980     531.3 
  61        61   983     493.4 
  62        62   981     449.5 
  63        63   981     435.9 
  64        64   981     472.0 
  65        65   982     492.2 
  66        66   982     431.8 
  67        67   981     460.4 
  68        68   981     468.9 
  69        69   981     499.5 
  70        70   983     493.4 
  71        71   980     430.3 
  72        72   981     484.2 
  73        73   981     502.2 
  74        74   982     533.3 
  75        75   981     427.1 
  76        76   980     427.9 
  77        77   980     456.8 
  78        78   982     469.8 
  79        79   982     458.6 
  80        80   980     496.3 
  81        81   981     447.5 
  82        82   980     499.7 
  83        83   982     421.2 
  84        84   980     448.3 
  85        85   980     469.0 
  86        86   980     502.0 
  87        87   982     475.2 
  88        88   981     401.6 
  89        89   980     434.7 
  90        90   981     449.5 
  91        91   981     467.9 
  92        92   982     448.1 
  93        93   980     402.4 
  94        94   980     451.0 
  95        95   980     469.7 
  96        96   982     428.0 
  97        97   981     417.3 
  98        98   980     412.9 
  99        99   980     443.2 
 100       100   980     402.0 
 101       101   981     426.4 
 102       102   980     390.1 
 103       103   980     468.0 
 104       104   980     439.8 
 105       105   982     415.5 
 106       106   980     364.6 
 107       107   980     441.8 
 108       108   980     496.3 
 109       109   981     426.4 
 110       110   980     363.6 
 111       111   980     435.7 
 112       112   980     435.7 
 113       113   980     401.7 
 114       114   981     386.7 
 115       115   980     408.5 
 116       116   980     425.2 
 117       117   980     447.3 
 118       118   980     387.8 
 119       119   980     400.0 
 120       120   979     406.2 
 121       121   980     472.8 
 122       122   980     382.7 
 123       123   981     370.7 
 124       124   979     402.8 
 125       125   980     459.5 
 126       126   980     405.8 
 127       127   981     429.2 
 128       128   980     367.3 
 129       129   979     432.1 
 130       130   979     467.1 
 131       131   980     363.3 
 132       132   980     425.5 
 133       133   979     466.5 
 134       134   979     435.5 
 135       135   979     441.6 
 136       136   980     368.0 
 137       137   979     401.1 
 138       138   979     472.3 
 139       139   979     393.3 
 140       140   980     380.6 
 141       141   980     401.0 
 142       142   978     456.7 
 143       143   980     470.1 
 144       144   979     421.9 
 145       145   980     377.9 
 146       146   978     455.7 
 147       147   979     449.1 
 148       148   979     372.5 
 149       149   979     425.6 
 150       150   979     425.6 
 151       210  1000     412.0 
 152       270   997     519.6 
 153       330  1000     439.3 
 154       390   996     450.1 
 155       450   996     424.7 
 156       510   996     349.1 
 157       570   994     357.8 
 158       630   998     324.3 
 159       810   983     336.7 
 160       990   980     482.3 
 161      1170   985     414.2 
 162      1350   986     304.9 
 163      1530   981     366.3 
 164      2070   980     354.4 
 165      2691   973     409.7 
 166      3405   978     314.6 
 167      4226   978     449.6 
 168      5170   976     354.2 
 169      6256   975     445.1 
 170      7505   974     390.8 
 171      8941   977     264.1 
 172     10592   975     386.3 
 173     12491   973     299.8 
 174     14675   979     283.3 
 175     17187   975     277.6 
 176     20076   974     325.8 
 177     23398   977     312.5 
 178     27218   979     261.8 
 179     31611   980     285.0 
 180     36663   980     287.1 
 181     42473   977     235.8 
 182     49155   978     285.3 
 183     56839   980     331.3 
 184     65676   977     346.6 
 185     75839   981     346.6 
