PC/104 FIRe Fluorometer 2.0.0
 4/ 8/2025     39724
LED Color:           blue
Gain:               2000
Sample Delay (msec):    10
Number Samples:   3
STF (usec):      150
STRP (#samples):       35
STRI (usec):       60
MTF (ms):        0
MTF (#samples):     0
MTRP (#samples):        0
MTRI (usec):      100
PQLen:     4
Ambient Light Source Power: Off
PAR (uMol/m^2/s):386.46
Comment:
Depth(m):  -2.0
Temperature(C):  75.4
Battery(V):  14.09

         Time    EX   Fl-Yield 
DATA--------------------------
   0         0     0       0.0 
   1         1   156     117.5 
   2         2   817     241.5 
   3         3   953     187.5 
   4         4   969     158.2 
   5         5   972     231.5 
   6         6   973     220.3 
   7         7   973     265.8 
   8         8   977     233.4 
   9         9   974     183.4 
  10        10   975     225.6 
  11        11   976     198.4 
  12        12   977     196.5 
  13        13   977     191.4 
  14        14   977     224.8 
  15        15   977     194.1 
  16        16   978     223.2 
  17        17   980     193.9 
  18        18   977     169.6 
  19        19   978     186.4 
  20        20   979     213.1 
  21        21   980     198.0 
  22        22   979     196.8 
  23        23   979     198.5 
  24        24   979     227.8 
  25        25   980     227.2 
  26        26   980     194.9 
  27        27   978     220.5 
  28        28   980     223.8 
  29        29   980     252.4 
  30        30   980     206.8 
  31        31   980     198.0 
  32        32   980     250.7 
  33        33   980     261.9 
  34        34   981     265.4 
  35        35   981     228.3 
  36        36   980     249.0 
  37        37   981     252.8 
  38        38   980     263.6 
  39        39   981     278.3 
  40        40   980     234.4 
  41        41   981     258.6 
  42        42   980     327.6 
  43        43   982     240.0 
  44        44   981     290.9 
  45        45   980     279.6 
  46        46   981     291.2 
  47        47   982     241.3 
  48        48   982     290.6 
  49        49   981     263.7 
  50        50   981     288.1 
  51        51   980     285.7 
  52        52   983     240.1 
  53        53   981     303.4 
  54        54   981     266.4 
  55        55   981     296.0 
  56        56   982     286.5 
  57        57   982     295.0 
  58        58   981     278.3 
  59        59   981     284.1 
  60        60   980     261.2 
  61        61   983     241.8 
  62        62   981     276.6 
  63        63   981     232.4 
  64        64   981     282.7 
  65        65   982     258.3 
  66        66   982     259.7 
  67        67   981     287.8 
  68        68   981     304.8 
  69        69   981     224.9 
  70        70   983     296.4 
  71        71   980     254.4 
  72        72   981     322.5 
  73        73   981     295.3 
  74        74   982     333.0 
  75        75   981     295.3 
  76        76   980     332.3 
  77        77   980     305.4 
  78        78   982     309.6 
  79        79   982     314.7 
  80        80   980     297.3 
  81        81   981     310.6 
  82        82   980     298.0 
  83        83   982     304.1 
  84        84   980     301.7 
  85        85   980     355.1 
  86        86   980     293.2 
  87        87   982     327.9 
  88        88   981     342.5 
  89        89   980     294.6 
  90        90   981     307.2 
  91        91   981     302.1 
  92        92   982     295.0 
  93        93   980     299.7 
  94        94   980     344.2 
  95        95   980     321.8 
  96        96   982     283.1 
  97        97   981     285.8 
  98        98   980     301.0 
  99        99   980     308.5 
 100       100   980     282.7 
 101       101   981     305.1 
 102       102   980     299.0 
 103       103   980     241.8 
 104       104   980     246.9 
 105       105   982     314.7 
 106       106   980     284.4 
 107       107   980     272.4 
 108       108   980     285.7 
 109       109   981     263.0 
 110       110   980     268.4 
 111       111   980     262.9 
 112       112   980     282.0 
 113       113   980     216.3 
 114       114   981     257.9 
 115       115   980     246.3 
 116       116   980     259.9 
 117       117   980     254.4 
 118       118   980     238.1 
 119       119   980     276.5 
 120       120   979     281.6 
 121       121   980     261.6 
 122       122   980     244.6 
 123       123   981     241.6 
 124       124   979     258.4 
 125       125   980     298.0 
 126       126   980     250.0 
 127       127   981     253.1 
 128       128   980     303.7 
 129       129   979     310.5 
 130       130   979     253.0 
 131       131   980     265.3 
 132       132   980     268.4 
 133       133   979     264.6 
 134       134   979     302.3 
 135       135   979     227.4 
 136       136   980     295.9 
 137       137   979     296.9 
 138       138   979     271.7 
 139       139   979     235.6 
 140       140   980     263.6 
 141       141   980     232.0 
 142       142   978     283.9 
 143       143   980     219.4 
 144       144   979     254.7 
 145       145   980     250.0 
 146       146   978     233.8 
 147       147   979     201.9 
 148       148   979     262.9 
 149       149   979     243.8 
 150       150   979     243.8 
 151       210  1000     387.0 
 152       270   997     289.5 
 153       330  1000     380.7 
 154       390   996     272.4 
 155       450   996     274.4 
 156       510   996     232.6 
 157       570   994     348.4 
 158       630   998     291.9 
 159       810   983     301.8 
 160       990   980     234.4 
 161      1170   985     317.4 
 162      1350   986     365.1 
 163      1530   981     254.5 
 164      2070   980     318.0 
 165      2691   973     278.9 
 166      3405   978     198.0 
 167      4226   978     327.9 
 168      5170   976     318.6 
 169      6256   975     310.4 
 170      7505   974     200.9 
 171      8941   977     288.6 
 172     10592   975     282.1 
 173     12491   973     316.5 
 174     14675   979     298.3 
 175     17187   975     306.7 
 176     20076   974     253.6 
 177     23398   977     179.1 
 178     27218   979     364.3 
 179     31611   980     255.1 
 180     36663   980     212.2 
 181     42473   977     130.0 
 182     49155   978     329.2 
 183     56839   980     209.5 
 184     65676   977     220.4 
 185     75839   981     220.4 
   1         1   156     217.9 
   2         2   817     188.9 
   3         3   953     208.1 
   4         4   969     224.6 
   5         5   972     247.6 
   6         6   973     217.2 
   7         7   973     210.3 
   8         8   977     236.4 
   9         9   974     241.3 
  10        10   975     278.3 
  11        11   976     245.6 
  12        12   977     249.7 
  13        13   977     270.2 
  14        14   977     325.8 
  15        15   977     334.0 
  16        16   978     264.1 
  17        17   980     252.0 
  18        18   977     270.9 
  19        19   978     347.3 
  20        20   979     231.5 
  21        21   980     226.9 
  22        22   979     230.5 
  23        23   979     298.6 
  24        24   979     197.8 
  25        25   980     171.1 
  26        26   980     199.3 
  27        27   978     226.3 
  28        28   980     212.6 
  29        29   980     171.4 
  30        30   980     153.1 
  31        31   980     219.4 
  32        32   980     235.7 
  33        33   980     204.1 
  34        34   981     173.6 
  35        35   981     205.2 
  36        36   980     274.8 
  37        37   981     189.6 
  38        38   980     180.6 
  39        39   981     150.5 
  40        40   980     262.6 
  41        41   981     222.6 
  42        42   980     173.5 
  43        43   982     165.6 
  44        44   981     211.7 
  45        45   980     276.5 
  46        46   981     184.8 
  47        47   982     202.0 
  48        48   982     197.2 
  49        49   981     235.5 
  50        50   981     208.3 
  51        51   980     172.8 
  52        52   983     208.9 
  53        53   981     254.2 
  54        54   981     242.9 
  55        55   981     163.1 
  56        56   982     207.7 
  57        57   982     199.9 
  58        58   981     239.6 
  59        59   981     171.3 
  60        60   980     183.7 
  61        61   983     177.3 
  62        62   981     277.6 
  63        63   981     194.7 
  64        64   981     216.1 
  65        65   982     188.7 
  66        66   982     262.7 
  67        67   981     273.5 
  68        68   981     244.6 
  69        69   981     230.4 
  70        70   983     225.8 
  71        71   980     297.3 
  72        72   981     214.4 
  73        73   981     182.1 
  74        74   982     264.8 
  75        75   981     287.1 
  76        76   980     288.8 
  77        77   980     225.2 
  78        78   982     193.1 
  79        79   982     321.8 
  80        80   980     311.9 
  81        81   981     273.2 
  82        82   980     257.5 
  83        83   982     273.6 
  84        84   980     325.2 
  85        85   980     246.6 
  86        86   980     228.2 
  87        87   982     245.1 
  88        88   981     297.7 
  89        89   980     263.6 
  90        90   981     276.6 
  91        91   981     262.3 
  92        92   982     283.8 
  93        93   980     339.5 
  94        94   980     242.2 
  95        95   980     244.9 
  96        96   982     244.4 
  97        97   981     322.1 
  98        98   980     258.8 
  99        99   980     248.0 
 100       100   980     219.7 
 101       101   981     250.1 
 102       102   980     290.5 
 103       103   980     234.4 
 104       104   980     247.3 
 105       105   982     251.2 
 106       106   980     295.2 
 107       107   980     290.1 
 108       108   980     231.0 
 109       109   981     229.4 
 110       110   980     289.5 
 111       111   980     254.8 
 112       112   980     248.3 
 113       113   980     240.8 
 114       114   981     287.5 
 115       115   980     272.4 
 116       116   980     202.7 
 117       117   980     237.1 
 118       118   980     267.7 
 119       119   980     261.9 
 120       120   979     292.5 
 121       121   980     214.3 
 122       122   980     240.1 
 123       123   981     304.1 
 124       124   979     281.6 
 125       125   980     270.7 
 126       126   980     287.4 
 127       127   981     269.8 
 128       128   980     318.7 
 129       129   979     258.8 
 130       130   979     204.3 
 131       131   980     279.6 
 132       132   980     275.2 
 133       133   979     247.2 
 134       134   979     197.8 
 135       135   979     221.7 
 136       136   980     286.7 
 137       137   979     244.1 
 138       138   979     265.2 
 139       139   979     216.5 
 140       140   980     281.3 
 141       141   980     240.1 
 142       142   978     193.9 
 143       143   980     205.1 
 144       144   979     254.7 
 145       145   980     299.0 
 146       146   978     185.1 
 147       147   979     227.8 
 148       148   979     179.1 
 149       149   979     175.7 
 150       150   979     175.7 
 151       210  1000     288.7 
 152       270   997     223.3 
 153       330  1000     437.7 
 154       390   996     205.2 
 155       450   996     224.2 
 156       510   996     205.8 
 157       570   994     432.6 
 158       630   998     295.6 
 159       810   983     302.8 
 160       990   980     200.7 
 161      1170   985     277.8 
 162      1350   986     430.4 
 163      1530   981     149.2 
 164      2070   980     252.7 
 165      2691   973     205.2 
 166      3405   978     267.6 
 167      4226   978     278.8 
 168      5170   976     341.5 
 169      6256   975     328.9 
 170      7505   974     283.0 
 171      8941   977     342.5 
 172     10592   975     256.8 
 173     12491   973     189.8 
 174     14675   979     387.1 
 175     17187   975     289.6 
 176     20076   974     292.3 
 177     23398   977     335.7 
 178     27218   979     279.2 
 179     31611   980     344.9 
 180     36663   980     281.3 
 181     42473   977     245.6 
 182     49155   978     347.6 
 183     56839   980     231.3 
 184     65676   977     291.4 
 185     75839   981     291.4 
