PC/104 FIRe Fluorometer 2.0.0
 4/ 8/2025     36976
LED Color:           blue
Gain:               1900
Sample Delay (msec):    10
Number Samples:   3
STF (usec):      150
STRP (#samples):       35
STRI (usec):       60
MTF (ms):        0
MTF (#samples):     0
MTRP (#samples):        0
MTRI (usec):      100
PQLen:     4
Ambient Light Source Power: Off
PAR (uMol/m^2/s):335.66
Comment:
Depth(m):  -0.3
Temperature(C):  72.3
Battery(V):  14.40

         Time    EX   Fl-Yield 
DATA--------------------------
   0         0     0       0.0 
   1         1   156     367.5 
   2         2   817     150.6 
   3         3   953     134.3 
   4         4   969     141.0 
   5         5   972     182.1 
   6         6   973     159.3 
   7         7   973     160.0 
   8         8   977     178.8 
   9         9   974     193.0 
  10        10   975     159.0 
  11        11   976     104.8 
  12        12   977     179.1 
  13        13   977     180.8 
  14        14   977     207.1 
  15        15   977     148.1 
  16        16   978     197.7 
  17        17   980     170.4 
  18        18   977     192.4 
  19        19   978     173.5 
  20        20   979     171.6 
  21        21   980     181.6 
  22        22   979     190.3 
  23        23   979     176.0 
  24        24   979     181.1 
  25        25   980     145.9 
  26        26   980     176.2 
  27        27   978     200.1 
  28        28   980     174.8 
  29        29   980     169.4 
  30        30   980     182.7 
  31        31   980     222.4 
  32        32   980     152.4 
  33        33   980     165.3 
  34        34   981     118.9 
  35        35   981     174.0 
  36        36   980     181.0 
  37        37   981     179.4 
  38        38   980     175.9 
  39        39   981     162.8 
  40        40   980     213.6 
  41        41   981     168.5 
  42        42   980     172.1 
  43        43   982     154.8 
  44        44   981     212.4 
  45        45   980     191.2 
  46        46   981     173.6 
  47        47   982     184.3 
  48        48   982     198.9 
  49        49   981     193.3 
  50        50   981     191.3 
  51        51   980     164.6 
  52        52   983     158.7 
  53        53   981     195.0 
  54        54   981     182.8 
  55        55   981     156.6 
  56        56   982     164.6 
  57        57   982     186.0 
  58        58   981     176.7 
  59        59   981     174.7 
  60        60   980     159.9 
  61        61   983     196.0 
  62        62   981     230.7 
  63        63   981     172.3 
  64        64   981     127.4 
  65        65   982     180.6 
  66        66   982     214.2 
  67        67   981     191.6 
  68        68   981     180.1 
  69        69   981     165.5 
  70        70   983     208.9 
  71        71   980     203.4 
  72        72   981     169.9 
  73        73   981     185.5 
  74        74   982     179.2 
  75        75   981     180.4 
  76        76   980     161.2 
  77        77   980     175.9 
  78        78   982     148.7 
  79        79   982     196.9 
  80        80   980     185.7 
  81        81   981     136.9 
  82        82   980     166.7 
  83        83   982     221.0 
  84        84   980     214.3 
  85        85   980     200.3 
  86        86   980     178.9 
  87        87   982     172.4 
  88        88   981     204.2 
  89        89   980     176.2 
  90        90   981     173.0 
  91        91   981     144.1 
  92        92   982     183.0 
  93        93   980     161.6 
  94        94   980     160.5 
  95        95   980     161.9 
  96        96   982     173.1 
  97        97   981     213.4 
  98        98   980     162.6 
  99        99   980     184.4 
 100       100   980     198.0 
 101       101   981     227.0 
 102       102   980     215.6 
 103       103   980     174.5 
 104       104   980     132.3 
 105       105   982     187.0 
 106       106   980     235.7 
 107       107   980     186.1 
 108       108   980     142.2 
 109       109   981     202.9 
 110       110   980     191.2 
 111       111   980     148.6 
 112       112   980     129.6 
 113       113   980     170.1 
 114       114   981     205.6 
 115       115   980     221.4 
 116       116   980     163.9 
 117       117   980     156.8 
 118       118   980     166.0 
 119       119   980     221.4 
 120       120   979     176.0 
 121       121   980     149.7 
 122       122   980     135.4 
 123       123   981     189.6 
 124       124   979     158.0 
 125       125   980     130.6 
 126       126   980     176.5 
 127       127   981     190.3 
 128       128   980     154.1 
 129       129   979     148.1 
 130       130   979     178.4 
 131       131   980     174.8 
 132       132   980     204.4 
 133       133   979     173.3 
 134       134   979     161.4 
 135       135   979     178.1 
 136       136   980     216.7 
 137       137   979     201.9 
 138       138   979     170.6 
 139       139   979     139.3 
 140       140   980     176.9 
 141       141   980     183.3 
 142       142   978     196.7 
 143       143   980     192.2 
 144       144   979     191.0 
 145       145   980     215.6 
 146       146   978     174.2 
 147       147   979     172.3 
 148       148   979     189.0 
 149       149   979     178.8 
 150       150   979     178.8 
 151       210  1000     205.3 
 152       270   997     309.9 
 153       330  1000     141.7 
 154       390   996     152.9 
 155       450   996     226.6 
 156       510   996     202.5 
 157       570   994     134.1 
 158       630   998     185.7 
 159       810   983     171.6 
 160       990   980      76.5 
 161      1170   985     128.3 
 162      1350   986     165.7 
 163      1530   981     199.1 
 164      2070   980     182.3 
 165      2691   973     243.9 
 166      3405   978     164.3 
 167      4226   978     174.8 
 168      5170   976     113.0 
 169      6256   975     136.4 
 170      7505   974     219.0 
 171      8941   977     250.1 
 172     10592   975     257.4 
 173     12491   973     269.3 
 174     14675   979     273.1 
 175     17187   975     212.6 
 176     20076   974     216.3 
 177     23398   977     269.2 
 178     27218   979     178.1 
 179     31611   980     245.2 
 180     36663   980     115.6 
 181     42473   977     159.3 
 182     49155   978     290.0 
 183     56839   980     191.8 
 184     65676   977     105.4 
 185     75839   981     105.4 
   1         1   156    -100.4 
   2         2   817     178.3 
   3         3   953     181.2 
   4         4   969     149.0 
   5         5   972     132.4 
   6         6   973     135.3 
   7         7   973     149.4 
   8         8   977     161.0 
   9         9   974     149.2 
  10        10   975     178.5 
  11        11   976     206.3 
  12        12   977     190.4 
  13        13   977     230.0 
  14        14   977     199.2 
  15        15   977     233.7 
  16        16   978     228.4 
  17        17   980     241.5 
  18        18   977     262.0 
  19        19   978     208.9 
  20        20   979     184.5 
  21        21   980     195.6 
  22        22   979     181.1 
  23        23   979     188.6 
  24        24   979     188.6 
  25        25   980     195.6 
  26        26   980     193.9 
  27        27   978     203.8 
  28        28   980     178.6 
  29        29   980     198.6 
  30        30   980     170.1 
  31        31   980     162.6 
  32        32   980     200.0 
  33        33   980     215.6 
  34        34   981     203.5 
  35        35   981     197.4 
  36        36   980     191.2 
  37        37   981     201.5 
  38        38   980     179.3 
  39        39   981     188.2 
  40        40   980     194.2 
  41        41   981     150.5 
  42        42   980     225.5 
  43        43   982     117.1 
  44        44   981     193.7 
  45        45   980     165.3 
  46        46   981     177.4 
  47        47   982     132.7 
  48        48   982     168.0 
  49        49   981     191.6 
  50        50   981     171.6 
  51        51   980     150.7 
  52        52   983     158.7 
  53        53   981     135.6 
  54        54   981     171.3 
  55        55   981     173.3 
  56        56   982     210.5 
  57        57   982     152.1 
  58        58   981     174.7 
  59        59   981     153.9 
  60        60   980     197.6 
  61        61   983     180.7 
  62        62   981     139.7 
  63        63   981     178.4 
  64        64   981     188.9 
  65        65   982     137.8 
  66        66   982     175.2 
  67        67   981     167.5 
  68        68   981     200.5 
  69        69   981     141.7 
  70        70   983     144.5 
  71        71   980     181.3 
  72        72   981     196.7 
  73        73   981     185.2 
  74        74   982     176.2 
  75        75   981     185.5 
  76        76   980     185.7 
  77        77   980     165.3 
  78        78   982     165.0 
  79        79   982     191.8 
  80        80   980     127.2 
  81        81   981     156.3 
  82        82   980     156.5 
  83        83   982     158.9 
  84        84   980     163.6 
  85        85   980     158.2 
  86        86   980     173.8 
  87        87   982     129.0 
  88        88   981     149.2 
  89        89   980     164.3 
  90        90   981     172.6 
  91        91   981     168.2 
  92        92   982     151.7 
  93        93   980     137.1 
  94        94   980     180.6 
  95        95   980     177.2 
  96        96   982     139.5 
  97        97   981     171.3 
  98        98   980     178.9 
  99        99   980     175.2 
 100       100   980     173.8 
 101       101   981     176.0 
 102       102   980     154.8 
 103       103   980     195.2 
 104       104   980     148.3 
 105       105   982     180.2 
 106       106   980     178.6 
 107       107   980     177.2 
 108       108   980     219.0 
 109       109   981     182.8 
 110       110   980     168.7 
 111       111   980     153.4 
 112       112   980     232.7 
 113       113   980     163.6 
 114       114   981     180.4 
 115       115   980     168.7 
 116       116   980     202.0 
 117       117   980     179.6 
 118       118   980     185.7 
 119       119   980     164.3 
 120       120   979     196.8 
 121       121   980     178.9 
 122       122   980     156.5 
 123       123   981     189.3 
 124       124   979     156.3 
 125       125   980     213.3 
 126       126   980     157.1 
 127       127   981     189.6 
 128       128   980     145.6 
 129       129   979     207.0 
 130       130   979     196.8 
 131       131   980     182.0 
 132       132   980     196.3 
 133       133   979     154.9 
 134       134   979     192.7 
 135       135   979     158.3 
 136       136   980     186.7 
 137       137   979     177.7 
 138       138   979     184.5 
 139       139   979     198.5 
 140       140   980     208.5 
 141       141   980     169.7 
 142       142   978     198.4 
 143       143   980     208.8 
 144       144   979     185.6 
 145       145   980     246.6 
 146       146   978     218.5 
 147       147   979     240.7 
 148       148   979     185.9 
 149       149   979     172.6 
 150       150   979     172.6 
 151       210  1000     131.0 
 152       270   997     200.9 
 153       330  1000     183.3 
 154       390   996     279.8 
 155       450   996     155.6 
 156       510   996     244.6 
 157       570   994     194.8 
 158       630   998     114.2 
 159       810   983     123.1 
 160       990   980     275.2 
 161      1170   985     165.1 
 162      1350   986     190.0 
 163      1530   981     253.1 
 164      2070   980      69.4 
 165      2691   973     198.4 
 166      3405   978     225.6 
 167      4226   978     152.4 
 168      5170   976     139.3 
 169      6256   975     146.7 
 170      7505   974     224.8 
 171      8941   977     190.4 
 172     10592   975     185.0 
 173     12491   973     108.6 
 174     14675   979     164.8 
 175     17187   975     180.9 
 176     20076   974     231.0 
 177     23398   977     174.7 
 178     27218   979     112.4 
 179     31611   980     231.3 
 180     36663   980     209.2 
 181     42473   977     162.1 
 182     49155   978     237.9 
 183     56839   980     167.0 
 184     65676   977     225.5 
 185     75839   981     225.5 
