PC/104 FIRe Fluorometer 2.0.0
 4/ 8/2025     39793
LED Color:           blue
Gain:               2000
Sample Delay (msec):    10
Number Samples:   3
STF (usec):      150
STRP (#samples):       35
STRI (usec):       60
MTF (ms):        0
MTF (#samples):     0
MTRP (#samples):        0
MTRI (usec):      100
PQLen:     4
Ambient Light Source Power: Off
PAR (uMol/m^2/s):900.00
Comment:
Depth(m):  -1.9
Temperature(C):  75.1
Battery(V):  14.08

         Time    EX   Fl-Yield 
DATA--------------------------
   0         0     0       0.0 
   1         1   156      94.0 
   2         2   817     403.1 
   3         3   953     367.3 
   4         4   969     411.4 
   5         5   972     404.3 
   6         6   973     419.0 
   7         7   973     406.3 
   8         8   977     416.2 
   9         9   974     399.0 
  10        10   975     417.8 
  11        11   976     471.0 
  12        12   977     459.2 
  13        13   977     391.3 
  14        14   977     454.8 
  15        15   977     461.3 
  16        16   978     499.0 
  17        17   980     439.8 
  18        18   977     465.4 
  19        19   978     471.0 
  20        20   979     464.1 
  21        21   980     459.9 
  22        22   979     491.0 
  23        23   979     453.9 
  24        24   979     535.2 
  25        25   980     517.3 
  26        26   980     513.9 
  27        27   978     561.0 
  28        28   980     557.8 
  29        29   980     553.1 
  30        30   980     568.4 
  31        31   980     558.8 
  32        32   980     546.3 
  33        33   980     588.8 
  34        34   981     547.4 
  35        35   981     549.1 
  36        36   980     604.1 
  37        37   981     571.5 
  38        38   980     611.9 
  39        39   981     603.5 
  40        40   980     593.2 
  41        41   981     621.8 
  42        42   980     633.7 
  43        43   982     654.1 
  44        44   981     583.1 
  45        45   980     623.1 
  46        46   981     633.7 
  47        47   982     608.6 
  48        48   982     597.4 
  49        49   981     613.0 
  50        50   981     573.6 
  51        51   980     598.3 
  52        52   983     575.4 
  53        53   981     598.7 
  54        54   981     636.1 
  55        55   981     661.6 
  56        56   982     590.3 
  57        57   982     624.2 
  58        58   981     565.1 
  59        59   981     607.9 
  60        60   980     576.9 
  61        61   983     595.1 
  62        62   981     574.2 
  63        63   981     608.6 
  64        64   981     618.4 
  65        65   982     649.4 
  66        66   982     587.2 
  67        67   981     613.3 
  68        68   981     606.5 
  69        69   981     630.6 
  70        70   983     600.5 
  71        71   980     585.4 
  72        72   981     621.5 
  73        73   981     591.6 
  74        74   982     593.7 
  75        75   981     575.9 
  76        76   980     645.2 
  77        77   980     630.6 
  78        78   982     600.8 
  79        79   982     600.8 
  80        80   980     597.3 
  81        81   981     634.7 
  82        82   980     573.8 
  83        83   982     619.1 
  84        84   980     583.3 
  85        85   980     622.1 
  86        86   980     576.5 
  87        87   982     634.8 
  88        88   981     596.7 
  89        89   980     569.4 
  90        90   981     607.5 
  91        91   981     592.3 
  92        92   982     601.5 
  93        93   980     595.2 
  94        94   980     574.1 
  95        95   980     628.9 
  96        96   982     558.7 
  97        97   981     596.7 
  98        98   980     583.3 
  99        99   980     570.7 
 100       100   980     568.0 
 101       101   981     537.5 
 102       102   980     583.3 
 103       103   980     570.7 
 104       104   980     583.7 
 105       105   982     584.2 
 106       106   980     578.6 
 107       107   980     591.2 
 108       108   980     610.9 
 109       109   981     589.9 
 110       110   980     583.3 
 111       111   980     612.6 
 112       112   980     631.3 
 113       113   980     603.1 
 114       114   981     584.8 
 115       115   980     602.7 
 116       116   980     644.2 
 117       117   980     600.7 
 118       118   980     568.7 
 119       119   980     583.0 
 120       120   979     612.2 
 121       121   980     628.6 
 122       122   980     573.8 
 123       123   981     615.7 
 124       124   979     607.8 
 125       125   980     606.1 
 126       126   980     612.6 
 127       127   981     609.9 
 128       128   980     667.7 
 129       129   979     644.5 
 130       130   979     620.7 
 131       131   980     637.4 
 132       132   980     618.0 
 133       133   979     625.5 
 134       134   979     588.0 
 135       135   979     601.6 
 136       136   980     526.2 
 137       137   979     648.6 
 138       138   979     613.2 
 139       139   979     611.5 
 140       140   980     607.1 
 141       141   980     616.7 
 142       142   978     646.6 
 143       143   980     602.0 
 144       144   979     569.3 
 145       145   980     571.4 
 146       146   978     604.0 
 147       147   979     630.9 
 148       148   979     621.0 
 149       149   979     607.4 
 150       150   979     607.4 
 151       210  1000     585.7 
 152       270   997     630.9 
 153       330  1000     577.3 
 154       390   996     471.2 
 155       450   996     600.7 
 156       510   996     533.1 
 157       570   994     563.0 
 158       630   998     567.5 
 159       810   983     422.5 
 160       990   980     520.1 
 161      1170   985     501.9 
 162      1350   986     497.6 
 163      1530   981     491.0 
 164      2070   980     487.4 
 165      2691   973     530.7 
 166      3405   978     547.0 
 167      4226   978     350.7 
 168      5170   976     523.9 
 169      6256   975     416.4 
 170      7505   974     312.5 
 171      8941   977     415.2 
 172     10592   975     434.2 
 173     12491   973     418.3 
 174     14675   979     452.8 
 175     17187   975     272.1 
 176     20076   974     356.6 
 177     23398   977     435.7 
 178     27218   979     413.0 
 179     31611   980     323.1 
 180     36663   980     425.9 
 181     42473   977     409.4 
 182     49155   978     473.8 
 183     56839   980     404.1 
 184     65676   977     467.4 
 185     75839   981     467.4 
   1         1   156     183.8 
   2         2   817     664.6 
   3         3   953     628.2 
   4         4   969     674.6 
   5         5   972     654.0 
   6         6   973     657.1 
   7         7   973     650.9 
   8         8   977     684.4 
   9         9   974     668.4 
  10        10   975     714.5 
  11        11   976     751.4 
  12        12   977     692.6 
  13        13   977     703.5 
  14        14   977     732.9 
  15        15   977     705.6 
  16        16   978     757.3 
  17        17   980     722.8 
  18        18   977     730.5 
  19        19   978     723.9 
  20        20   979     734.1 
  21        21   980     713.6 
  22        22   979     683.7 
  23        23   979     677.2 
  24        24   979     732.0 
  25        25   980     643.5 
  26        26   980     675.5 
  27        27   978     689.8 
  28        28   980     684.0 
  29        29   980     654.8 
  30        30   980     653.1 
  31        31   980     640.5 
  32        32   980     642.9 
  33        33   980     657.8 
  34        34   981     619.4 
  35        35   981     677.2 
  36        36   980     633.3 
  37        37   981     636.8 
  38        38   980     650.7 
  39        39   981     647.3 
  40        40   980     645.2 
  41        41   981     653.8 
  42        42   980     666.7 
  43        43   982     639.2 
  44        44   981     664.3 
  45        45   980     638.1 
  46        46   981     641.5 
  47        47   982     653.8 
  48        48   982     637.5 
  49        49   981     631.0 
  50        50   981     693.2 
  51        51   980     663.3 
  52        52   983     651.7 
  53        53   981     667.3 
  54        54   981     659.9 
  55        55   981     609.9 
  56        56   982     616.1 
  57        57   982     612.7 
  58        58   981     649.7 
  59        59   981     680.9 
  60        60   980     615.0 
  61        61   983     650.7 
  62        62   981     641.2 
  63        63   981     682.6 
  64        64   981     654.1 
  65        65   982     625.6 
  66        66   982     642.9 
  67        67   981     607.2 
  68        68   981     665.0 
  69        69   981     616.0 
  70        70   983     662.6 
  71        71   980     621.1 
  72        72   981     702.7 
  73        73   981     650.0 
  74        74   982     642.9 
  75        75   981     693.8 
  76        76   980     669.4 
  77        77   980     674.1 
  78        78   982     680.9 
  79        79   982     650.0 
  80        80   980     642.9 
  81        81   981     652.1 
  82        82   980     675.2 
  83        83   982     685.3 
  84        84   980     651.7 
  85        85   980     711.9 
  86        86   980     650.7 
  87        87   982     689.7 
  88        88   981     643.6 
  89        89   980     671.4 
  90        90   981     711.5 
  91        91   981     679.2 
  92        92   982     684.7 
  93        93   980     706.1 
  94        94   980     709.5 
  95        95   980     671.8 
  96        96   982     684.7 
  97        97   981     690.1 
  98        98   980     713.6 
  99        99   980     751.4 
 100       100   980     709.9 
 101       101   981     693.2 
 102       102   980     767.3 
 103       103   980     749.7 
 104       104   980     707.5 
 105       105   982     729.8 
 106       106   980     676.9 
 107       107   980     727.2 
 108       108   980     718.4 
 109       109   981     722.4 
 110       110   980     745.6 
 111       111   980     719.4 
 112       112   980     754.1 
 113       113   980     726.5 
 114       114   981     725.1 
 115       115   980     763.9 
 116       116   980     785.7 
 117       117   980     750.7 
 118       118   980     759.2 
 119       119   980     740.5 
 120       120   979     753.8 
 121       121   980     702.4 
 122       122   980     746.9 
 123       123   981     721.0 
 124       124   979     736.1 
 125       125   980     678.6 
 126       126   980     700.3 
 127       127   981     721.0 
 128       128   980     733.0 
 129       129   979     731.4 
 130       130   979     723.2 
 131       131   980     714.3 
 132       132   980     705.8 
 133       133   979     759.6 
 134       134   979     725.2 
 135       135   979     737.8 
 136       136   980     696.6 
 137       137   979     706.5 
 138       138   979     750.1 
 139       139   979     695.3 
 140       140   980     728.2 
 141       141   980     683.7 
 142       142   978     699.7 
 143       143   980     661.2 
 144       144   979     701.7 
 145       145   980     689.8 
 146       146   978     694.6 
 147       147   979     679.9 
 148       148   979     676.9 
 149       149   979     728.6 
 150       150   979     728.6 
 151       210  1000     711.7 
 152       270   997     743.2 
 153       330  1000     780.0 
 154       390   996     743.3 
 155       450   996     815.3 
 156       510   996     717.9 
 157       570   994     700.2 
 158       630   998     737.1 
 159       810   983     656.5 
 160       990   980     913.3 
 161      1170   985     654.5 
 162      1350   986     791.1 
 163      1530   981     697.6 
 164      2070   980     756.5 
 165      2691   973     631.4 
 166      3405   978     571.9 
 167      4226   978     710.0 
 168      5170   976     682.0 
 169      6256   975     774.7 
 170      7505   974     593.8 
 171      8941   977     605.9 
 172     10592   975     623.6 
 173     12491   973     679.0 
 174     14675   979     579.5 
 175     17187   975     752.5 
 176     20076   974     610.2 
 177     23398   977     459.9 
 178     27218   979     563.2 
 179     31611   980     495.6 
 180     36663   980     562.6 
 181     42473   977     503.9 
 182     49155   978     522.2 
 183     56839   980     512.2 
 184     65676   977     531.2 
 185     75839   981     531.2 
