PC/104 FIRe Fluorometer 2.0.0
 4/ 8/2025     39854
LED Color:           blue
Gain:               1600
Sample Delay (msec):    10
Number Samples:   3
STF (usec):      150
STRP (#samples):       35
STRI (usec):       60
MTF (ms):        0
MTF (#samples):     0
MTRP (#samples):        0
MTRI (usec):      100
PQLen:     4
Ambient Light Source Power: Off
PAR (uMol/m^2/s):425.50
Comment:
Depth(m):  -2.0
Temperature(C):  75.3
Battery(V):  14.08

         Time    EX   Fl-Yield 
DATA--------------------------
   0         0     0       0.0 
   1         1   156     113.2 
   2         2   817     259.1 
   3         3   953     284.7 
   4         4   969     275.5 
   5         5   972     316.2 
   6         6   973     305.9 
   7         7   973     330.6 
   8         8   977     326.2 
   9         9   974     328.5 
  10        10   975     358.3 
  11        11   976     340.8 
  12        12   977     368.8 
  13        13   977     367.1 
  14        14   977     379.7 
  15        15   977     387.6 
  16        16   978     379.7 
  17        17   980     383.7 
  18        18   977     412.5 
  19        19   978     422.3 
  20        20   979     434.1 
  21        21   980     416.7 
  22        22   979     411.3 
  23        23   979     450.8 
  24        24   979     441.3 
  25        25   980     454.8 
  26        26   980     453.1 
  27        27   978     449.9 
  28        28   980     469.0 
  29        29   980     448.6 
  30        30   980     464.3 
  31        31   980     467.0 
  32        32   980     464.3 
  33        33   980     452.0 
  34        34   981     471.3 
  35        35   981     482.5 
  36        36   980     505.1 
  37        37   981     483.5 
  38        38   980     486.1 
  39        39   981     475.0 
  40        40   980     494.6 
  41        41   981     484.2 
  42        42   980     496.9 
  43        43   982     484.4 
  44        44   981     513.1 
  45        45   980     504.8 
  46        46   981     489.3 
  47        47   982     502.4 
  48        48   982     515.6 
  49        49   981     515.1 
  50        50   981     531.1 
  51        51   980     499.7 
  52        52   983     507.0 
  53        53   981     511.0 
  54        54   981     535.5 
  55        55   981     519.9 
  56        56   982     506.1 
  57        57   982     516.0 
  58        58   981     528.7 
  59        59   981     520.6 
  60        60   980     517.0 
  61        61   983     489.3 
  62        62   981     532.8 
  63        63   981     527.0 
  64        64   981     537.5 
  65        65   982     500.3 
  66        66   982     512.9 
  67        67   981     536.2 
  68        68   981     508.0 
  69        69   981     526.7 
  70        70   983     509.0 
  71        71   980     534.4 
  72        72   981     529.1 
  73        73   981     515.8 
  74        74   982     504.8 
  75        75   981     521.9 
  76        76   980     524.8 
  77        77   980     545.2 
  78        78   982     525.1 
  79        79   982     533.9 
  80        80   980     521.8 
  81        81   981     525.0 
  82        82   980     526.9 
  83        83   982     520.4 
  84        84   980     524.5 
  85        85   980     533.3 
  86        86   980     521.8 
  87        87   982     500.7 
  88        88   981     527.0 
  89        89   980     522.4 
  90        90   981     529.1 
  91        91   981     503.9 
  92        92   982     519.0 
  93        93   980     524.8 
  94        94   980     543.5 
  95        95   980     518.0 
  96        96   982     501.4 
  97        97   981     516.1 
  98        98   980     520.4 
  99        99   980     521.8 
 100       100   980     527.2 
 101       101   981     520.2 
 102       102   980     523.5 
 103       103   980     515.0 
 104       104   980     512.6 
 105       105   982     519.0 
 106       106   980     526.9 
 107       107   980     514.6 
 108       108   980     503.1 
 109       109   981     498.8 
 110       110   980     530.6 
 111       111   980     528.6 
 112       112   980     516.0 
 113       113   980     500.0 
 114       114   981     506.6 
 115       115   980     532.0 
 116       116   980     527.9 
 117       117   980     502.0 
 118       118   980     529.3 
 119       119   980     515.3 
 120       120   979     509.0 
 121       121   980     510.9 
 122       122   980     510.2 
 123       123   981     507.3 
 124       124   979     510.0 
 125       125   980     523.1 
 126       126   980     500.0 
 127       127   981     497.8 
 128       128   980     515.6 
 129       129   979     516.2 
 130       130   979     511.4 
 131       131   980     529.3 
 132       132   980     523.5 
 133       133   979     538.0 
 134       134   979     509.7 
 135       135   979     488.3 
 136       136   980     515.0 
 137       137   979     522.6 
 138       138   979     493.4 
 139       139   979     502.9 
 140       140   980     499.7 
 141       141   980     514.6 
 142       142   978     534.4 
 143       143   980     516.0 
 144       144   979     485.9 
 145       145   980     521.4 
 146       146   978     521.1 
 147       147   979     517.5 
 148       148   979     493.4 
 149       149   979     516.2 
 150       150   979     516.2 
 151       210  1000     572.3 
 152       270   997     546.0 
 153       330  1000     495.7 
 154       390   996     458.2 
 155       450   996     462.5 
 156       510   996     470.5 
 157       570   994     492.3 
 158       630   998     450.2 
 159       810   983     471.0 
 160       990   980     395.6 
 161      1170   985     448.4 
 162      1350   986     440.8 
 163      1530   981     434.3 
 164      2070   980     389.5 
 165      2691   973     414.9 
 166      3405   978     397.8 
 167      4226   978     400.1 
 168      5170   976     379.4 
 169      6256   975     339.5 
 170      7505   974     389.1 
 171      8941   977     368.8 
 172     10592   975     362.1 
 173     12491   973     357.7 
 174     14675   979     334.0 
 175     17187   975     353.2 
 176     20076   974     329.2 
 177     23398   977     334.4 
 178     27218   979     306.8 
 179     31611   980     300.7 
 180     36663   980     379.9 
 181     42473   977     311.5 
 182     49155   978     318.3 
 183     56839   980     301.0 
 184     65676   977     339.5 
 185     75839   981     339.5 
   1         1   156     391.0 
   2         2   817     576.5 
   3         3   953     604.4 
   4         4   969     572.1 
   5         5   972     591.2 
   6         6   973     597.8 
   7         7   973     570.7 
   8         8   977     591.3 
   9         9   974     605.7 
  10        10   975     617.8 
  11        11   976     612.7 
  12        12   977     641.1 
  13        13   977     613.4 
  14        14   977     652.3 
  15        15   977     633.9 
  16        16   978     633.3 
  17        17   980     639.8 
  18        18   977     648.9 
  19        19   978     627.5 
  20        20   979     627.5 
  21        21   980     616.0 
  22        22   979     624.8 
  23        23   979     626.8 
  24        24   979     609.5 
  25        25   980     610.2 
  26        26   980     630.3 
  27        27   978     620.3 
  28        28   980     601.7 
  29        29   980     605.4 
  30        30   980     605.8 
  31        31   980     634.7 
  32        32   980     621.4 
  33        33   980     616.7 
  34        34   981     618.4 
  35        35   981     627.9 
  36        36   980     626.2 
  37        37   981     618.8 
  38        38   980     615.3 
  39        39   981     624.9 
  40        40   980     642.9 
  41        41   981     630.3 
  42        42   980     638.1 
  43        43   982     635.1 
  44        44   981     635.7 
  45        45   980     650.0 
  46        46   981     629.3 
  47        47   982     634.1 
  48        48   982     638.5 
  49        49   981     652.1 
  50        50   981     634.7 
  51        51   980     656.8 
  52        52   983     635.5 
  53        53   981     641.9 
  54        54   981     633.0 
  55        55   981     629.6 
  56        56   982     629.7 
  57        57   982     652.1 
  58        58   981     649.0 
  59        59   981     648.3 
  60        60   980     645.9 
  61        61   983     634.8 
  62        62   981     648.0 
  63        63   981     641.5 
  64        64   981     646.3 
  65        65   982     632.7 
  66        66   982     640.2 
  67        67   981     627.9 
  68        68   981     625.2 
  69        69   981     628.6 
  70        70   983     630.7 
  71        71   980     648.3 
  72        72   981     612.3 
  73        73   981     619.8 
  74        74   982     623.9 
  75        75   981     643.9 
  76        76   980     640.8 
  77        77   980     632.3 
  78        78   982     619.5 
  79        79   982     632.4 
  80        80   980     638.1 
  81        81   981     613.3 
  82        82   980     627.9 
  83        83   982     616.8 
  84        84   980     640.5 
  85        85   980     635.4 
  86        86   980     626.9 
  87        87   982     625.6 
  88        88   981     619.4 
  89        89   980     615.6 
  90        90   981     632.3 
  91        91   981     626.9 
  92        92   982     646.6 
  93        93   980     629.3 
  94        94   980     628.6 
  95        95   980     638.4 
  96        96   982     625.3 
  97        97   981     622.5 
  98        98   980     621.8 
  99        99   980     629.6 
 100       100   980     630.6 
 101       101   981     647.0 
 102       102   980     621.4 
 103       103   980     631.0 
 104       104   980     642.9 
 105       105   982     637.5 
 106       106   980     633.7 
 107       107   980     639.8 
 108       108   980     630.3 
 109       109   981     617.4 
 110       110   980     632.3 
 111       111   980     617.0 
 112       112   980     627.6 
 113       113   980     615.3 
 114       114   981     657.5 
 115       115   980     618.4 
 116       116   980     614.3 
 117       117   980     623.8 
 118       118   980     629.3 
 119       119   980     637.1 
 120       120   979     618.7 
 121       121   980     621.8 
 122       122   980     615.3 
 123       123   981     621.8 
 124       124   979     616.3 
 125       125   980     630.6 
 126       126   980     625.9 
 127       127   981     639.1 
 128       128   980     630.3 
 129       129   979     610.5 
 130       130   979     618.0 
 131       131   980     645.9 
 132       132   980     635.4 
 133       133   979     624.1 
 134       134   979     637.0 
 135       135   979     631.9 
 136       136   980     643.2 
 137       137   979     613.6 
 138       138   979     626.1 
 139       139   979     612.2 
 140       140   980     641.8 
 141       141   980     640.5 
 142       142   978     644.9 
 143       143   980     636.4 
 144       144   979     646.9 
 145       145   980     647.3 
 146       146   978     629.5 
 147       147   979     646.6 
 148       148   979     641.8 
 149       149   979     637.0 
 150       150   979     637.0 
 151       210  1000     631.7 
 152       270   997     665.3 
 153       330  1000     622.7 
 154       390   996     674.4 
 155       450   996     648.6 
 156       510   996     641.9 
 157       570   994     636.8 
 158       630   998     651.0 
 159       810   983     631.4 
 160       990   980     626.5 
 161      1170   985     664.3 
 162      1350   986     617.3 
 163      1530   981     658.2 
 164      2070   980     604.8 
 165      2691   973     624.5 
 166      3405   978     591.0 
 167      4226   978     579.1 
 168      5170   976     560.1 
 169      6256   975     558.6 
 170      7505   974     595.8 
 171      8941   977     521.0 
 172     10592   975     522.4 
 173     12491   973     514.6 
 174     14675   979     500.2 
 175     17187   975     482.7 
 176     20076   974     472.6 
 177     23398   977     435.3 
 178     27218   979     413.0 
 179     31611   980     442.5 
 180     36663   980     435.7 
 181     42473   977     407.4 
 182     49155   978     377.6 
 183     56839   980     359.5 
 184     65676   977     414.5 
 185     75839   981     414.5 
