PC/104 FIRe Fluorometer 2.0.0
 4/ 8/2025     27300
LED Color:           blue
Gain:               2000
Sample Delay (msec):    10
Number Samples:   3
STF (usec):      150
STRP (#samples):       35
STRI (usec):       60
MTF (ms):        0
MTF (#samples):     0
MTRP (#samples):        0
MTRI (usec):      100
PQLen:     4
Ambient Light Source Power: Off
PAR (uMol/m^2/s):245.00
Comment:
Depth(m):   3.6
Temperature(C):  42.7
Battery(V):  16.34

         Time    EX   Fl-Yield 
DATA--------------------------
   0         0     0       0.0 
   1         1   156     134.6 
   2         2   817     123.6 
   3         3   953      60.9 
   4         4   969     175.4 
   5         5   972      66.2 
   6         6   973     147.7 
   7         7   973     110.3 
   8         8   977     118.0 
   9         9   974      80.8 
  10        10   975     134.7 
  11        11   976      88.1 
  12        12   977     109.9 
  13        13   977     139.5 
  14        14   977     119.8 
  15        15   977     129.6 
  16        16   978     127.5 
  17        17   980     146.9 
  18        18   977     132.0 
  19        19   978     199.4 
  20        20   979     151.5 
  21        21   980     158.8 
  22        22   979     170.2 
  23        23   979     147.1 
  24        24   979      87.5 
  25        25   980     157.1 
  26        26   980     153.1 
  27        27   978     231.8 
  28        28   980     126.2 
  29        29   980     157.8 
  30        30   980     176.9 
  31        31   980     208.8 
  32        32   980     158.8 
  33        33   980     170.7 
  34        34   981     139.3 
  35        35   981     166.5 
  36        36   980     186.1 
  37        37   981     162.4 
  38        38   980     171.8 
  39        39   981     210.7 
  40        40   980     195.9 
  41        41   981     187.9 
  42        42   980     159.2 
  43        43   982     174.8 
  44        44   981     187.9 
  45        45   980     132.7 
  46        46   981     147.1 
  47        47   982     191.1 
  48        48   982     116.4 
  49        49   981     156.3 
  50        50   981     138.6 
  51        51   980     128.6 
  52        52   983     187.5 
  53        53   981     138.0 
  54        54   981     114.8 
  55        55   981     167.9 
  56        56   982     191.1 
  57        57   982     189.1 
  58        58   981     124.4 
  59        59   981      70.7 
  60        60   980     115.6 
  61        61   983     100.4 
  62        62   981     129.8 
  63        63   981     121.3 
  64        64   981     141.4 
  65        65   982     122.9 
  66        66   982     147.0 
  67        67   981     140.3 
  68        68   981     154.6 
  69        69   981     146.4 
  70        70   983     145.5 
  71        71   980      86.7 
  72        72   981     153.2 
  73        73   981     130.8 
  74        74   982     143.2 
  75        75   981     101.6 
  76        76   980     112.2 
  77        77   980     121.4 
  78        78   982     116.8 
  79        79   982     108.3 
  80        80   980     181.3 
  81        81   981     186.9 
  82        82   980     119.7 
  83        83   982     116.4 
  84        84   980      92.2 
  85        85   980     104.4 
  86        86   980     139.8 
  87        87   982     136.1 
  88        88   981      93.8 
  89        89   980     126.9 
  90        90   981     142.0 
  91        91   981      87.3 
  92        92   982     104.2 
  93        93   980      64.3 
  94        94   980      68.7 
  95        95   980     136.1 
  96        96   982     142.2 
  97        97   981      97.5 
  98        98   980     143.5 
  99        99   980      99.0 
 100       100   980      92.5 
 101       101   981     102.6 
 102       102   980     153.1 
 103       103   980     123.8 
 104       104   980     128.6 
 105       105   982      46.8 
 106       106   980     120.4 
 107       107   980      87.4 
 108       108   980     152.4 
 109       109   981     113.5 
 110       110   980     118.4 
 111       111   980     148.0 
 112       112   980     137.4 
 113       113   980     178.9 
 114       114   981     146.4 
 115       115   980     130.3 
 116       116   980     142.2 
 117       117   980     117.3 
 118       118   980     140.8 
 119       119   980     108.2 
 120       120   979     147.4 
 121       121   980     151.0 
 122       122   980     108.5 
 123       123   981      61.5 
 124       124   979     180.8 
 125       125   980     178.2 
 126       126   980     100.0 
 127       127   981     118.6 
 128       128   980      92.5 
 129       129   979     194.1 
 130       130   979     165.1 
 131       131   980     152.0 
 132       132   980     112.6 
 133       133   979     237.3 
 134       134   979     191.7 
 135       135   979     190.3 
 136       136   980     145.9 
 137       137   979     235.6 
 138       138   979     173.6 
 139       139   979     133.8 
 140       140   980     147.3 
 141       141   980     145.9 
 142       142   978     204.8 
 143       143   980     191.5 
 144       144   979     136.5 
 145       145   980     154.8 
 146       146   978     132.9 
 147       147   979     150.8 
 148       148   979     153.2 
 149       149   979     206.0 
 150       150   979     206.0 
 151       210  1000      41.7 
 152       270   997     203.6 
 153       330  1000     105.0 
 154       390   996     204.1 
 155       450   996      75.3 
 156       510   996      70.3 
 157       570   994     130.4 
 158       630   998     123.9 
 159       810   983     118.3 
 160       990   980      67.3 
 161      1170   985     -35.2 
 162      1350   986     158.6 
 163      1530   981      76.1 
 164      2070   980      54.4 
 165      2691   973     107.9 
 166      3405   978      72.3 
 167      4226   978     115.5 
 168      5170   976     174.9 
 169      6256   975     217.1 
 170      7505   974     174.2 
 171      8941   977     118.0 
 172     10592   975     128.2 
 173     12491   973     153.1 
 174     14675   979     114.1 
 175     17187   975     230.1 
 176     20076   974     162.9 
 177     23398   977     176.7 
 178     27218   979     155.6 
 179     31611   980     126.5 
 180     36663   980     187.1 
 181     42473   977      10.6 
 182     49155   978     133.6 
 183     56839   980      83.7 
 184     65676   977      81.2 
 185     75839   981      81.2 
   1         1   156      59.8 
   2         2   817     113.8 
   3         3   953     138.2 
   4         4   969     149.3 
   5         5   972      99.5 
   6         6   973      85.0 
   7         7   973     147.7 
   8         8   977     158.3 
   9         9   974      85.2 
  10        10   975     106.3 
  11        11   976     168.0 
  12        12   977     219.0 
  13        13   977     187.6 
  14        14   977     192.4 
  15        15   977     179.8 
  16        16   978     256.3 
  17        17   980     215.6 
  18        18   977     211.5 
  19        19   978     121.3 
  20        20   979     174.7 
  21        21   980     158.2 
  22        22   979     147.1 
  23        23   979     174.7 
  24        24   979     122.9 
  25        25   980     151.0 
  26        26   980      79.9 
  27        27   978     120.3 
  28        28   980     174.8 
  29        29   980     232.3 
  30        30   980     104.4 
  31        31   980     117.3 
  32        32   980     143.5 
  33        33   980     182.7 
  34        34   981     243.3 
  35        35   981     186.9 
  36        36   980     140.8 
  37        37   981     213.7 
  38        38   980     193.2 
  39        39   981     179.1 
  40        40   980     170.1 
  41        41   981     215.4 
  42        42   980     254.8 
  43        43   982     191.4 
  44        44   981     166.8 
  45        45   980     166.0 
  46        46   981     214.7 
  47        47   982     192.1 
  48        48   982     164.3 
  49        49   981     164.5 
  50        50   981     237.9 
  51        51   980     240.5 
  52        52   983     146.2 
  53        53   981     184.5 
  54        54   981     201.2 
  55        55   981     184.5 
  56        56   982     181.3 
  57        57   982     164.3 
  58        58   981     206.9 
  59        59   981     258.9 
  60        60   980     212.9 
  61        61   983     155.3 
  62        62   981     206.6 
  63        63   981     260.6 
  64        64   981     223.6 
  65        65   982     191.1 
  66        66   982     198.2 
  67        67   981     205.6 
  68        68   981     216.4 
  69        69   981     159.7 
  70        70   983     190.6 
  71        71   980     259.5 
  72        72   981     234.5 
  73        73   981     205.9 
  74        74   982     158.2 
  75        75   981     199.1 
  76        76   980     219.4 
  77        77   980     215.3 
  78        78   982     164.0 
  79        79   982     178.2 
  80        80   980     184.4 
  81        81   981     209.3 
  82        82   980     177.6 
  83        83   982     128.0 
  84        84   980     209.5 
  85        85   980     223.8 
  86        86   980     159.2 
  87        87   982     157.8 
  88        88   981     175.7 
  89        89   980     203.1 
  90        90   981     166.2 
  91        91   981     215.8 
  92        92   982     163.3 
  93        93   980     196.3 
  94        94   980     174.1 
  95        95   980     175.9 
  96        96   982     118.1 
  97        97   981     191.6 
  98        98   980     178.9 
  99        99   980     210.5 
 100       100   980     106.5 
 101       101   981     176.4 
 102       102   980     191.2 
 103       103   980     193.5 
 104       104   980     147.6 
 105       105   982     106.6 
 106       106   980     196.9 
 107       107   980     170.7 
 108       108   980     150.0 
 109       109   981      63.2 
 110       110   980     172.4 
 111       111   980     131.0 
 112       112   980     150.0 
 113       113   980     121.4 
 114       114   981     185.5 
 115       115   980     172.1 
 116       116   980     150.3 
 117       117   980     150.3 
 118       118   980      64.3 
 119       119   980     189.8 
 120       120   979     139.9 
 121       121   980     122.4 
 122       122   980     146.3 
 123       123   981     107.4 
 124       124   979     130.1 
 125       125   980      92.5 
 126       126   980     165.3 
 127       127   981     174.3 
 128       128   980     204.8 
 129       129   979      96.0 
 130       130   979      26.2 
 131       131   980     164.6 
 132       132   980     205.1 
 133       133   979     159.3 
 134       134   979     109.3 
 135       135   979     142.0 
 136       136   980     145.9 
 137       137   979     185.9 
 138       138   979     115.8 
 139       139   979     124.6 
 140       140   980     146.6 
 141       141   980     144.6 
 142       142   978      93.4 
 143       143   980     132.3 
 144       144   979     136.2 
 145       145   980     204.4 
 146       146   978     166.0 
 147       147   979     129.0 
 148       148   979     148.1 
 149       149   979     107.3 
 150       150   979     107.3 
 151       210  1000     119.7 
 152       270   997     131.7 
 153       330  1000      69.3 
 154       390   996      84.0 
 155       450   996      43.2 
 156       510   996     131.2 
 157       570   994     -10.1 
 158       630   998      66.8 
 159       810   983      49.8 
 160       990   980     132.7 
 161      1170   985     137.4 
 162      1350   986      -6.8 
 163      1530   981     162.8 
 164      2070   980     -35.4 
 165      2691   973      13.0 
 166      3405   978     277.1 
 167      4226   978      93.7 
 168      5170   976     127.7 
 169      6256   975      87.9 
 170      7505   974      52.4 
 171      8941   977     273.6 
 172     10592   975      72.5 
 173     12491   973     162.0 
 174     14675   979     144.7 
 175     17187   975      96.4 
 176     20076   974     250.2 
 177     23398   977     170.2 
 178     27218   979     262.9 
 179     31611   980     112.9 
 180     36663   980      84.4 
 181     42473   977     105.8 
 182     49155   978     163.6 
 183     56839   980     184.7 
 184     65676   977      26.3 
 185     75839   981      26.3 
