PC/104 FIRe Fluorometer 2.0.0
 4/ 8/2025     37001
LED Color:           blue
Gain:               1800
Sample Delay (msec):    10
Number Samples:   3
STF (usec):      150
STRP (#samples):       35
STRI (usec):       60
MTF (ms):        0
MTF (#samples):     0
MTRP (#samples):        0
MTRI (usec):      100
PQLen:     4
Ambient Light Source Power: Off
PAR (uMol/m^2/s):900.00
Comment:
Depth(m):  -0.4
Temperature(C):  72.3
Battery(V):  14.39

         Time    EX   Fl-Yield 
DATA--------------------------
   0         0     0       0.0 
   1         1   156     427.4 
   2         2   817     304.8 
   3         3   953     240.3 
   4         4   969     277.3 
   5         5   972     305.9 
   6         6   973     322.0 
   7         7   973     299.4 
   8         8   977     279.8 
   9         9   974     311.8 
  10        10   975     327.9 
  11        11   976     357.9 
  12        12   977     325.5 
  13        13   977     292.7 
  14        14   977     349.4 
  15        15   977     363.0 
  16        16   978     322.8 
  17        17   980     334.0 
  18        18   977     331.3 
  19        19   978     359.6 
  20        20   979     339.5 
  21        21   980     307.8 
  22        22   979     345.3 
  23        23   979     390.5 
  24        24   979     358.2 
  25        25   980     337.1 
  26        26   980     367.3 
  27        27   978     337.4 
  28        28   980     408.2 
  29        29   980     374.1 
  30        30   980     355.4 
  31        31   980     364.6 
  32        32   980     375.9 
  33        33   980     380.3 
  34        34   981     367.0 
  35        35   981     385.7 
  36        36   980     387.1 
  37        37   981     392.5 
  38        38   980     355.4 
  39        39   981     375.1 
  40        40   980     397.6 
  41        41   981     399.3 
  42        42   980     398.0 
  43        43   982     393.1 
  44        44   981     374.8 
  45        45   980     403.4 
  46        46   981     423.0 
  47        47   982     401.2 
  48        48   982     378.5 
  49        49   981     389.4 
  50        50   981     390.4 
  51        51   980     393.5 
  52        52   983     382.2 
  53        53   981     387.4 
  54        54   981     423.0 
  55        55   981     374.8 
  56        56   982     395.5 
  57        57   982     384.2 
  58        58   981     410.1 
  59        59   981     400.6 
  60        60   980     392.5 
  61        61   983     380.8 
  62        62   981     433.6 
  63        63   981     432.9 
  64        64   981     411.5 
  65        65   982     375.8 
  66        66   982     408.0 
  67        67   981     415.2 
  68        68   981     393.1 
  69        69   981     361.5 
  70        70   983     393.0 
  71        71   980     415.0 
  72        72   981     420.7 
  73        73   981     384.0 
  74        74   982     356.1 
  75        75   981     407.7 
  76        76   980     424.8 
  77        77   980     398.0 
  78        78   982     369.0 
  79        79   982     383.9 
  80        80   980     416.7 
  81        81   981     419.6 
  82        82   980     393.5 
  83        83   982     408.4 
  84        84   980     407.1 
  85        85   980     409.9 
  86        86   980     384.0 
  87        87   982     370.0 
  88        88   981     396.9 
  89        89   980     428.6 
  90        90   981     392.5 
  91        91   981     399.3 
  92        92   982     366.6 
  93        93   980     439.1 
  94        94   980     405.8 
  95        95   980     361.2 
  96        96   982     387.6 
  97        97   981     417.3 
  98        98   980     441.5 
  99        99   980     361.9 
 100       100   980     398.0 
 101       101   981     405.4 
 102       102   980     391.5 
 103       103   980     423.1 
 104       104   980     403.4 
 105       105   982     368.6 
 106       106   980     411.6 
 107       107   980     387.4 
 108       108   980     409.2 
 109       109   981     368.0 
 110       110   980     395.2 
 111       111   980     433.7 
 112       112   980     391.2 
 113       113   980     365.6 
 114       114   981     391.8 
 115       115   980     415.6 
 116       116   980     404.8 
 117       117   980     373.8 
 118       118   980     367.0 
 119       119   980     400.7 
 120       120   979     385.4 
 121       121   980     376.2 
 122       122   980     368.4 
 123       123   981     393.5 
 124       124   979     393.3 
 125       125   980     389.1 
 126       126   980     367.7 
 127       127   981     353.7 
 128       128   980     428.6 
 129       129   979     418.8 
 130       130   979     392.2 
 131       131   980     383.0 
 132       132   980     395.6 
 133       133   979     407.9 
 134       134   979     395.0 
 135       135   979     375.2 
 136       136   980     393.9 
 137       137   979     404.2 
 138       138   979     365.3 
 139       139   979     365.0 
 140       140   980     370.4 
 141       141   980     379.9 
 142       142   978     414.5 
 143       143   980     369.0 
 144       144   979     375.6 
 145       145   980     417.0 
 146       146   978     442.1 
 147       147   979     408.6 
 148       148   979     354.1 
 149       149   979     406.2 
 150       150   979     406.2 
 151       210  1000     441.0 
 152       270   997     365.8 
 153       330  1000     330.7 
 154       390   996     430.4 
 155       450   996     403.3 
 156       510   996     385.9 
 157       570   994     330.7 
 158       630   998     474.6 
 159       810   983     330.6 
 160       990   980     342.9 
 161      1170   985     348.2 
 162      1350   986     332.3 
 163      1530   981     352.0 
 164      2070   980     366.7 
 165      2691   973     428.2 
 166      3405   978     358.6 
 167      4226   978     355.8 
 168      5170   976     284.8 
 169      6256   975     266.7 
 170      7505   974     345.3 
 171      8941   977     351.4 
 172     10592   975     291.6 
 173     12491   973     315.5 
 174     14675   979     265.2 
 175     17187   975     328.2 
 176     20076   974     332.6 
 177     23398   977     280.5 
 178     27218   979     329.9 
 179     31611   980     286.1 
 180     36663   980     343.2 
 181     42473   977     345.3 
 182     49155   978     360.3 
 183     56839   980     345.6 
 184     65676   977     405.7 
 185     75839   981     405.7 
   1         1   156     224.4 
   2         2   817     370.1 
   3         3   953     400.5 
   4         4   969     400.4 
   5         5   972     400.2 
   6         6   973     386.4 
   7         7   973     414.5 
   8         8   977     404.3 
   9         9   974     444.6 
  10        10   975     448.5 
  11        11   976     494.5 
  12        12   977     475.3 
  13        13   977     456.5 
  14        14   977     469.5 
  15        15   977     481.1 
  16        16   978     482.3 
  17        17   980     473.5 
  18        18   977     446.6 
  19        19   978     434.9 
  20        20   979     462.7 
  21        21   980     427.6 
  22        22   979     409.9 
  23        23   979     404.5 
  24        24   979     393.3 
  25        25   980     395.6 
  26        26   980     398.0 
  27        27   978     395.4 
  28        28   980     405.8 
  29        29   980     400.3 
  30        30   980     388.4 
  31        31   980     383.0 
  32        32   980     388.1 
  33        33   980     430.3 
  34        34   981     365.6 
  35        35   981     403.7 
  36        36   980     389.8 
  37        37   981     399.6 
  38        38   980     410.2 
  39        39   981     392.5 
  40        40   980     411.9 
  41        41   981     394.8 
  42        42   980     410.9 
  43        43   982     411.7 
  44        44   981     398.6 
  45        45   980     404.1 
  46        46   981     427.8 
  47        47   982     389.0 
  48        48   982     421.6 
  49        49   981     383.6 
  50        50   981     424.7 
  51        51   980     414.3 
  52        52   983     412.7 
  53        53   981     425.1 
  54        54   981     389.4 
  55        55   981     418.3 
  56        56   982     388.3 
  57        57   982     405.3 
  58        58   981     395.2 
  59        59   981     413.9 
  60        60   980     390.5 
  61        61   983     419.8 
  62        62   981     393.5 
  63        63   981     404.3 
  64        64   981     405.0 
  65        65   982     394.8 
  66        66   982     362.2 
  67        67   981     390.1 
  68        68   981     406.7 
  69        69   981     389.4 
  70        70   983     377.1 
  71        71   980     400.0 
  72        72   981     415.9 
  73        73   981     399.3 
  74        74   982     415.8 
  75        75   981     393.1 
  76        76   980     407.5 
  77        77   980     400.3 
  78        78   982     389.0 
  79        79   982     418.9 
  80        80   980     419.0 
  81        81   981     467.9 
  82        82   980     411.6 
  83        83   982     403.9 
  84        84   980     402.0 
  85        85   980     406.5 
  86        86   980     445.6 
  87        87   982     408.0 
  88        88   981     424.7 
  89        89   980     419.7 
  90        90   981     438.7 
  91        91   981     388.7 
  92        92   982     420.2 
  93        93   980     409.5 
  94        94   980     411.9 
  95        95   980     420.7 
  96        96   982     410.0 
  97        97   981     435.9 
  98        98   980     414.6 
  99        99   980     428.9 
 100       100   980     438.1 
 101       101   981     415.6 
 102       102   980     387.1 
 103       103   980     421.1 
 104       104   980     420.1 
 105       105   982     407.3 
 106       106   980     386.1 
 107       107   980     425.9 
 108       108   980     418.7 
 109       109   981     406.0 
 110       110   980     419.4 
 111       111   980     420.7 
 112       112   980     407.5 
 113       113   980     406.1 
 114       114   981     399.3 
 115       115   980     423.1 
 116       116   980     420.4 
 117       117   980     418.7 
 118       118   980     423.1 
 119       119   980     425.9 
 120       120   979     437.2 
 121       121   980     423.1 
 122       122   980     413.9 
 123       123   981     428.8 
 124       124   979     433.8 
 125       125   980     456.5 
 126       126   980     443.2 
 127       127   981     426.1 
 128       128   980     397.6 
 129       129   979     433.8 
 130       130   979     437.5 
 131       131   980     404.1 
 132       132   980     402.7 
 133       133   979     465.1 
 134       134   979     431.1 
 135       135   979     441.6 
 136       136   980     434.0 
 137       137   979     424.9 
 138       138   979     466.8 
 139       139   979     437.5 
 140       140   980     429.3 
 141       141   980     439.1 
 142       142   978     425.0 
 143       143   980     429.3 
 144       144   979     433.8 
 145       145   980     416.0 
 146       146   978     405.6 
 147       147   979     436.8 
 148       148   979     420.5 
 149       149   979     393.9 
 150       150   979     393.9 
 151       210  1000     375.0 
 152       270   997     373.5 
 153       330  1000     413.7 
 154       390   996     436.7 
 155       450   996     396.3 
 156       510   996     423.7 
 157       570   994     374.9 
 158       630   998     458.2 
 159       810   983     437.8 
 160       990   980     447.3 
 161      1170   985     408.1 
 162      1350   986     461.8 
 163      1530   981     365.3 
 164      2070   980     385.4 
 165      2691   973     417.6 
 166      3405   978     436.6 
 167      4226   978     439.3 
 168      5170   976     433.7 
 169      6256   975     396.9 
 170      7505   974     422.3 
 171      8941   977     392.4 
 172     10592   975     408.2 
 173     12491   973     452.2 
 174     14675   979     433.4 
 175     17187   975     435.9 
 176     20076   974     418.5 
 177     23398   977     391.0 
 178     27218   979     289.1 
 179     31611   980     367.3 
 180     36663   980     375.2 
 181     42473   977     359.3 
 182     49155   978     356.9 
 183     56839   980     295.6 
 184     65676   977     350.4 
 185     75839   981     350.4 
