PC/104 FIRe Fluorometer 2.0.0
 4/ 8/2025     33492
LED Color:           blue
Gain:               1500
Sample Delay (msec):    10
Number Samples:   3
STF (usec):      150
STRP (#samples):       35
STRI (usec):       60
MTF (ms):        0
MTF (#samples):     0
MTRP (#samples):        0
MTRI (usec):      100
PQLen:     4
Ambient Light Source Power: Off
PAR (uMol/m^2/s):447.46
Comment:
Depth(m):   1.6
Temperature(C):  66.9
Battery(V):  15.09

         Time    EX   Fl-Yield 
DATA--------------------------
   0         0     0       0.0 
   1         1   156     194.4 
   2         2   817     257.9 
   3         3   953     261.6 
   4         4   969     273.5 
   5         5   972     267.5 
   6         6   973     278.2 
   7         7   973     274.1 
   8         8   977     291.7 
   9         9   974     303.2 
  10        10   975     297.4 
  11        11   976     293.0 
  12        12   977     297.2 
  13        13   977     288.0 
  14        14   977     305.4 
  15        15   977     326.2 
  16        16   978     326.5 
  17        17   980     329.9 
  18        18   977     320.4 
  19        19   978     353.4 
  20        20   979     313.2 
  21        21   980     332.0 
  22        22   979     337.8 
  23        23   979     323.8 
  24        24   979     341.8 
  25        25   980     351.7 
  26        26   980     350.3 
  27        27   978     338.1 
  28        28   980     339.8 
  29        29   980     363.3 
  30        30   980     354.4 
  31        31   980     364.3 
  32        32   980     356.1 
  33        33   980     356.8 
  34        34   981     355.4 
  35        35   981     360.9 
  36        36   980     350.0 
  37        37   981     357.5 
  38        38   980     359.9 
  39        39   981     344.9 
  40        40   980     356.1 
  41        41   981     367.7 
  42        42   980     356.5 
  43        43   982     363.2 
  44        44   981     363.6 
  45        45   980     352.0 
  46        46   981     359.8 
  47        47   982     353.7 
  48        48   982     356.1 
  49        49   981     358.1 
  50        50   981     367.3 
  51        51   980     352.7 
  52        52   983     365.5 
  53        53   981     359.5 
  54        54   981     344.2 
  55        55   981     354.4 
  56        56   982     350.0 
  57        57   982     354.4 
  58        58   981     361.9 
  59        59   981     361.2 
  60        60   980     366.7 
  61        61   983     373.0 
  62        62   981     345.9 
  63        63   981     345.9 
  64        64   981     349.3 
  65        65   982     360.8 
  66        66   982     353.7 
  67        67   981     353.7 
  68        68   981     366.6 
  69        69   981     358.5 
  70        70   983     352.7 
  71        71   980     358.8 
  72        72   981     354.1 
  73        73   981     357.8 
  74        74   982     365.9 
  75        75   981     356.8 
  76        76   980     374.1 
  77        77   980     363.9 
  78        78   982     373.4 
  79        79   982     372.0 
  80        80   980     354.4 
  81        81   981     355.4 
  82        82   980     367.7 
  83        83   982     361.8 
  84        84   980     378.2 
  85        85   980     357.5 
  86        86   980     376.5 
  87        87   982     359.5 
  88        88   981     362.2 
  89        89   980     364.3 
  90        90   981     361.2 
  91        91   981     369.7 
  92        92   982     356.4 
  93        93   980     360.5 
  94        94   980     357.1 
  95        95   980     357.5 
  96        96   982     374.1 
  97        97   981     360.5 
  98        98   980     355.8 
  99        99   980     360.5 
 100       100   980     364.3 
 101       101   981     363.9 
 102       102   980     367.3 
 103       103   980     374.5 
 104       104   980     359.9 
 105       105   982     368.3 
 106       106   980     357.8 
 107       107   980     366.0 
 108       108   980     355.8 
 109       109   981     374.1 
 110       110   980     358.5 
 111       111   980     365.0 
 112       112   980     368.4 
 113       113   980     365.3 
 114       114   981     363.9 
 115       115   980     373.1 
 116       116   980     360.5 
 117       117   980     361.9 
 118       118   980     391.2 
 119       119   980     380.3 
 120       120   979     366.0 
 121       121   980     369.7 
 122       122   980     369.4 
 123       123   981     361.9 
 124       124   979     357.2 
 125       125   980     360.9 
 126       126   980     356.5 
 127       127   981     370.7 
 128       128   980     367.3 
 129       129   979     369.4 
 130       130   979     355.5 
 131       131   980     366.7 
 132       132   980     353.7 
 133       133   979     372.5 
 134       134   979     368.4 
 135       135   979     366.0 
 136       136   980     374.1 
 137       137   979     357.2 
 138       138   979     365.7 
 139       139   979     355.1 
 140       140   980     366.3 
 141       141   980     366.7 
 142       142   978     374.9 
 143       143   980     371.8 
 144       144   979     363.0 
 145       145   980     360.2 
 146       146   978     366.7 
 147       147   979     369.8 
 148       148   979     359.9 
 149       149   979     357.5 
 150       150   979     357.5 
 151       210  1000     360.7 
 152       270   997     364.1 
 153       330  1000     350.7 
 154       390   996     359.4 
 155       450   996     368.5 
 156       510   996     343.0 
 157       570   994     329.3 
 158       630   998     342.0 
 159       810   983     321.8 
 160       990   980     315.6 
 161      1170   985     315.4 
 162      1350   986     324.9 
 163      1530   981     324.8 
 164      2070   980     308.2 
 165      2691   973     302.8 
 166      3405   978     281.5 
 167      4226   978     302.7 
 168      5170   976     284.8 
 169      6256   975     289.6 
 170      7505   974     290.2 
 171      8941   977     289.3 
 172     10592   975     261.2 
 173     12491   973     295.6 
 174     14675   979     298.9 
 175     17187   975     265.0 
 176     20076   974     303.6 
 177     23398   977     257.9 
 178     27218   979     289.1 
 179     31611   980     281.3 
 180     36663   980     288.4 
 181     42473   977     293.4 
 182     49155   978     241.0 
 183     56839   980     275.9 
 184     65676   977     246.3 
 185     75839   981     246.3 
   1         1   156     412.4 
   2         2   817     455.7 
   3         3   953     451.2 
   4         4   969     454.4 
   5         5   972     457.5 
   6         6   973     434.1 
   7         7   973     445.7 
   8         8   977     454.1 
   9         9   974     480.8 
  10        10   975     480.0 
  11        11   976     472.0 
  12        12   977     472.9 
  13        13   977     481.1 
  14        14   977     466.4 
  15        15   977     475.6 
  16        16   978     455.0 
  17        17   980     471.4 
  18        18   977     468.1 
  19        19   978     457.4 
  20        20   979     460.0 
  21        21   980     447.6 
  22        22   979     468.5 
  23        23   979     453.2 
  24        24   979     443.0 
  25        25   980     443.9 
  26        26   980     441.2 
  27        27   978     435.6 
  28        28   980     427.9 
  29        29   980     446.9 
  30        30   980     459.2 
  31        31   980     439.8 
  32        32   980     445.9 
  33        33   980     435.0 
  34        34   981     441.7 
  35        35   981     474.0 
  36        36   980     449.3 
  37        37   981     445.5 
  38        38   980     431.3 
  39        39   981     446.1 
  40        40   980     443.2 
  41        41   981     446.8 
  42        42   980     448.6 
  43        43   982     444.0 
  44        44   981     460.1 
  45        45   980     459.5 
  46        46   981     438.0 
  47        47   982     445.3 
  48        48   982     450.8 
  49        49   981     456.0 
  50        50   981     444.4 
  51        51   980     446.3 
  52        52   983     463.2 
  53        53   981     460.8 
  54        54   981     449.9 
  55        55   981     444.4 
  56        56   982     449.1 
  57        57   982     456.6 
  58        58   981     463.8 
  59        59   981     452.9 
  60        60   980     443.9 
  61        61   983     454.4 
  62        62   981     453.6 
  63        63   981     445.8 
  64        64   981     447.5 
  65        65   982     456.2 
  66        66   982     458.6 
  67        67   981     468.6 
  68        68   981     445.5 
  69        69   981     449.2 
  70        70   983     456.1 
  71        71   980     458.8 
  72        72   981     461.1 
  73        73   981     453.3 
  74        74   982     453.8 
  75        75   981     462.5 
  76        76   980     469.7 
  77        77   980     474.1 
  78        78   982     475.9 
  79        79   982     465.7 
  80        80   980     474.5 
  81        81   981     478.4 
  82        82   980     474.8 
  83        83   982     471.8 
  84        84   980     469.7 
  85        85   980     457.1 
  86        86   980     470.1 
  87        87   982     471.8 
  88        88   981     481.8 
  89        89   980     484.0 
  90        90   981     465.2 
  91        91   981     457.4 
  92        92   982     477.9 
  93        93   980     473.1 
  94        94   980     476.5 
  95        95   980     469.0 
  96        96   982     474.2 
  97        97   981     478.8 
  98        98   980     467.0 
  99        99   980     454.1 
 100       100   980     469.7 
 101       101   981     460.4 
 102       102   980     458.2 
 103       103   980     464.6 
 104       104   980     452.7 
 105       105   982     465.4 
 106       106   980     482.3 
 107       107   980     458.2 
 108       108   980     456.1 
 109       109   981     461.4 
 110       110   980     465.6 
 111       111   980     458.5 
 112       112   980     463.9 
 113       113   980     468.0 
 114       114   981     457.7 
 115       115   980     462.6 
 116       116   980     474.1 
 117       117   980     467.0 
 118       118   980     467.3 
 119       119   980     475.9 
 120       120   979     455.9 
 121       121   980     466.0 
 122       122   980     452.4 
 123       123   981     476.4 
 124       124   979     471.6 
 125       125   980     465.0 
 126       126   980     466.0 
 127       127   981     467.9 
 128       128   980     471.8 
 129       129   979     467.5 
 130       130   979     447.7 
 131       131   980     457.8 
 132       132   980     464.6 
 133       133   979     464.8 
 134       134   979     468.2 
 135       135   979     466.8 
 136       136   980     474.5 
 137       137   979     469.2 
 138       138   979     462.7 
 139       139   979     450.8 
 140       140   980     452.7 
 141       141   980     485.7 
 142       142   978     479.9 
 143       143   980     457.1 
 144       144   979     450.5 
 145       145   980     456.8 
 146       146   978     460.1 
 147       147   979     470.2 
 148       148   979     460.0 
 149       149   979     467.8 
 150       150   979     467.8 
 151       210  1000     493.7 
 152       270   997     446.0 
 153       330  1000     537.3 
 154       390   996     451.8 
 155       450   996     495.3 
 156       510   996     481.6 
 157       570   994     467.5 
 158       630   998     498.0 
 159       810   983     452.7 
 160       990   980     455.8 
 161      1170   985     456.5 
 162      1350   986     501.4 
 163      1530   981     447.5 
 164      2070   980     450.0 
 165      2691   973     466.9 
 166      3405   978     438.3 
 167      4226   978     459.1 
 168      5170   976     463.1 
 169      6256   975     421.9 
 170      7505   974     426.4 
 171      8941   977     405.7 
 172     10592   975     436.6 
 173     12491   973     418.3 
 174     14675   979     425.9 
 175     17187   975     405.8 
 176     20076   974     411.7 
 177     23398   977     388.6 
 178     27218   979     382.4 
 179     31611   980     430.3 
 180     36663   980     363.6 
 181     42473   977     393.4 
 182     49155   978     330.3 
 183     56839   980     330.3 
 184     65676   977     340.8 
 185     75839   981     340.8 
