PC/104 FIRe Fluorometer 2.0.0
 4/ 8/2025     36989
LED Color:           blue
Gain:               2000
Sample Delay (msec):    10
Number Samples:   3
STF (usec):      150
STRP (#samples):       35
STRI (usec):       60
MTF (ms):        0
MTF (#samples):     0
MTRP (#samples):        0
MTRI (usec):      100
PQLen:     4
Ambient Light Source Power: Off
PAR (uMol/m^2/s):900.00
Comment:
Depth(m):  -0.4
Temperature(C):  72.2
Battery(V):  14.40

         Time    EX   Fl-Yield 
DATA--------------------------
   0         0     0       0.0 
   1         1   156    -123.9 
   2         2   817     424.3 
   3         3   953     420.8 
   4         4   969     370.1 
   5         5   972     363.9 
   6         6   973     372.0 
   7         7   973     432.3 
   8         8   977     421.0 
   9         9   974     410.0 
  10        10   975     393.2 
  11        11   976     426.2 
  12        12   977     507.0 
  13        13   977     442.9 
  14        14   977     422.0 
  15        15   977     437.4 
  16        16   978     530.3 
  17        17   980     498.0 
  18        18   977     452.7 
  19        19   978     473.1 
  20        20   979     534.6 
  21        21   980     496.6 
  22        22   979     494.7 
  23        23   979     505.6 
  24        24   979     472.3 
  25        25   980     555.1 
  26        26   980     450.3 
  27        27   978     455.0 
  28        28   980     510.9 
  29        29   980     533.7 
  30        30   980     524.5 
  31        31   980     515.3 
  32        32   980     465.3 
  33        33   980     537.4 
  34        34   981     532.4 
  35        35   981     485.9 
  36        36   980     482.7 
  37        37   981     465.9 
  38        38   980     533.3 
  39        39   981     484.9 
  40        40   980     462.2 
  41        41   981     494.7 
  42        42   980     528.6 
  43        43   982     527.5 
  44        44   981     518.5 
  45        45   980     497.3 
  46        46   981     502.2 
  47        47   982     563.8 
  48        48   982     481.0 
  49        49   981     516.5 
  50        50   981     469.6 
  51        51   980     556.1 
  52        52   983     490.7 
  53        53   981     494.4 
  54        54   981     505.3 
  55        55   981     507.0 
  56        56   982     519.7 
  57        57   982     490.5 
  58        58   981     466.5 
  59        59   981     515.8 
  60        60   980     496.6 
  61        61   983     471.3 
  62        62   981     495.4 
  63        63   981     503.9 
  64        64   981     558.3 
  65        65   982     511.9 
  66        66   982     481.0 
  67        67   981     532.4 
  68        68   981     543.0 
  69        69   981     573.6 
  70        70   983     523.9 
  71        71   980     495.2 
  72        72   981     461.1 
  73        73   981     490.0 
  74        74   982     519.7 
  75        75   981     498.8 
  76        76   980     507.1 
  77        77   980     513.9 
  78        78   982     548.9 
  79        79   982     471.8 
  80        80   980     526.5 
  81        81   981     522.3 
  82        82   980     571.8 
  83        83   982     441.6 
  84        84   980     472.8 
  85        85   980     496.6 
  86        86   980     576.2 
  87        87   982     523.8 
  88        88   981     449.9 
  89        89   980     524.1 
  90        90   981     529.1 
  91        91   981     597.7 
  92        92   982     469.8 
  93        93   980     504.1 
  94        94   980     537.8 
  95        95   980     538.1 
  96        96   982     514.9 
  97        97   981     557.3 
  98        98   980     523.8 
  99        99   980     600.7 
 100       100   980     584.0 
 101       101   981     506.6 
 102       102   980     535.4 
 103       103   980     583.7 
 104       104   980     607.1 
 105       105   982     566.9 
 106       106   980     523.1 
 107       107   980     579.9 
 108       108   980     608.8 
 109       109   981     542.3 
 110       110   980     552.4 
 111       111   980     587.1 
 112       112   980     600.7 
 113       113   980     578.9 
 114       114   981     558.3 
 115       115   980     488.4 
 116       116   980     558.2 
 117       117   980     605.8 
 118       118   980     574.8 
 119       119   980     560.2 
 120       120   979     566.2 
 121       121   980     601.7 
 122       122   980     575.9 
 123       123   981     564.4 
 124       124   979     529.5 
 125       125   980     567.0 
 126       126   980     613.6 
 127       127   981     567.4 
 128       128   980     561.6 
 129       129   979     600.3 
 130       130   979     613.2 
 131       131   980     563.6 
 132       132   980     560.2 
 133       133   979     540.0 
 134       134   979     619.3 
 135       135   979     553.3 
 136       136   980     541.5 
 137       137   979     568.6 
 138       138   979     587.3 
 139       139   979     602.0 
 140       140   980     517.3 
 141       141   980     549.7 
 142       142   978     585.5 
 143       143   980     631.3 
 144       144   979     567.6 
 145       145   980     595.9 
 146       146   978     565.1 
 147       147   979     549.9 
 148       148   979     589.7 
 149       149   979     557.7 
 150       150   979     557.7 
 151       210  1000     533.0 
 152       270   997     453.7 
 153       330  1000     637.3 
 154       390   996     617.1 
 155       450   996     430.7 
 156       510   996     455.5 
 157       570   994     681.8 
 158       630   998     504.3 
 159       810   983     524.9 
 160       990   980     697.6 
 161      1170   985     515.1 
 162      1350   986     545.6 
 163      1530   981     430.5 
 164      2070   980     397.3 
 165      2691   973     356.3 
 166      3405   978     439.3 
 167      4226   978     313.2 
 168      5170   976     625.0 
 169      6256   975     500.9 
 170      7505   974     340.9 
 171      8941   977     492.7 
 172     10592   975     452.3 
 173     12491   973     480.6 
 174     14675   979     443.6 
 175     17187   975     463.2 
 176     20076   974     522.6 
 177     23398   977     472.9 
 178     27218   979     456.2 
 179     31611   980     365.6 
 180     36663   980     444.6 
 181     42473   977     351.4 
 182     49155   978     669.4 
 183     56839   980     468.4 
 184     65676   977     420.0 
 185     75839   981     420.0 
   1         1   156     504.3 
   2         2   817     573.6 
   3         3   953     619.8 
   4         4   969     597.9 
   5         5   972     609.7 
   6         6   973     593.0 
   7         7   973     572.8 
   8         8   977     625.4 
   9         9   974     675.6 
  10        10   975     661.5 
  11        11   976     688.2 
  12        12   977     713.7 
  13        13   977     758.8 
  14        14   977     729.8 
  15        15   977     709.0 
  16        16   978     699.7 
  17        17   980     686.7 
  18        18   977     667.3 
  19        19   978     657.1 
  20        20   979     678.9 
  21        21   980     658.5 
  22        22   979     657.8 
  23        23   979     678.9 
  24        24   979     616.6 
  25        25   980     627.6 
  26        26   980     629.9 
  27        27   978     606.7 
  28        28   980     638.8 
  29        29   980     636.7 
  30        30   980     674.5 
  31        31   980     640.1 
  32        32   980     624.5 
  33        33   980     606.1 
  34        34   981     647.3 
  35        35   981     610.6 
  36        36   980     612.9 
  37        37   981     599.4 
  38        38   980     624.5 
  39        39   981     620.8 
  40        40   980     591.2 
  41        41   981     612.3 
  42        42   980     560.5 
  43        43   982     698.6 
  44        44   981     656.1 
  45        45   980     667.7 
  46        46   981     637.4 
  47        47   982     610.3 
  48        48   982     598.4 
  49        49   981     687.1 
  50        50   981     661.6 
  51        51   980     647.3 
  52        52   983     663.6 
  53        53   981     672.4 
  54        54   981     676.2 
  55        55   981     631.0 
  56        56   982     646.0 
  57        57   982     679.9 
  58        58   981     685.0 
  59        59   981     664.3 
  60        60   980     574.5 
  61        61   983     668.7 
  62        62   981     612.0 
  63        63   981     609.6 
  64        64   981     671.8 
  65        65   982     668.0 
  66        66   982     639.9 
  67        67   981     639.1 
  68        68   981     618.1 
  69        69   981     661.2 
  70        70   983     661.9 
  71        71   980     644.2 
  72        72   981     601.8 
  73        73   981     598.4 
  74        74   982     639.5 
  75        75   981     590.6 
  76        76   980     616.7 
  77        77   980     624.5 
  78        78   982     603.5 
  79        79   982     616.1 
  80        80   980     617.3 
  81        81   981     604.8 
  82        82   980     615.3 
  83        83   982     632.7 
  84        84   980     599.0 
  85        85   980     584.7 
  86        86   980     618.0 
  87        87   982     612.4 
  88        88   981     666.3 
  89        89   980     648.6 
  90        90   981     628.3 
  91        91   981     654.1 
  92        92   982     660.2 
  93        93   980     639.1 
  94        94   980     610.9 
  95        95   980     632.0 
  96        96   982     601.5 
  97        97   981     617.4 
  98        98   980     626.5 
  99        99   980     640.8 
 100       100   980     628.6 
 101       101   981     654.8 
 102       102   980     647.6 
 103       103   980     636.1 
 104       104   980     663.9 
 105       105   982     621.5 
 106       106   980     642.5 
 107       107   980     649.7 
 108       108   980     643.9 
 109       109   981     648.3 
 110       110   980     637.1 
 111       111   980     636.1 
 112       112   980     575.5 
 113       113   980     665.3 
 114       114   981     628.6 
 115       115   980     598.3 
 116       116   980     616.0 
 117       117   980     633.3 
 118       118   980     655.4 
 119       119   980     649.3 
 120       120   979     644.9 
 121       121   980     655.4 
 122       122   980     626.5 
 123       123   981     670.4 
 124       124   979     619.3 
 125       125   980     634.4 
 126       126   980     641.5 
 127       127   981     623.9 
 128       128   980     678.6 
 129       129   979     659.2 
 130       130   979     641.1 
 131       131   980     647.6 
 132       132   980     618.4 
 133       133   979     616.6 
 134       134   979     672.5 
 135       135   979     667.3 
 136       136   980     639.5 
 137       137   979     657.5 
 138       138   979     598.6 
 139       139   979     670.4 
 140       140   980     630.3 
 141       141   980     627.6 
 142       142   978     644.9 
 143       143   980     613.3 
 144       144   979     647.9 
 145       145   980     677.6 
 146       146   978     696.3 
 147       147   979     677.2 
 148       148   979     630.9 
 149       149   979     679.6 
 150       150   979     679.6 
 151       210  1000     664.7 
 152       270   997     631.9 
 153       330  1000     654.0 
 154       390   996     596.7 
 155       450   996     640.6 
 156       510   996     670.0 
 157       570   994     586.2 
 158       630   998     696.1 
 159       810   983     612.8 
 160       990   980     608.8 
 161      1170   985     664.6 
 162      1350   986     719.7 
 163      1530   981     677.2 
 164      2070   980     656.8 
 165      2691   973     662.9 
 166      3405   978     627.5 
 167      4226   978     602.6 
 168      5170   976     621.6 
 169      6256   975     530.6 
 170      7505   974     642.7 
 171      8941   977     566.0 
 172     10592   975     638.6 
 173     12491   973     565.6 
 174     14675   979     563.5 
 175     17187   975     579.5 
 176     20076   974     569.5 
 177     23398   977     550.0 
 178     27218   979     566.9 
 179     31611   980     584.7 
 180     36663   980     490.5 
 181     42473   977     510.7 
 182     49155   978     516.4 
 183     56839   980     512.9 
 184     65676   977     484.1 
 185     75839   981     484.1 
