PC/104 FIRe Fluorometer 2.0.0
 4/ 8/2025     28190
LED Color:           blue
Gain:               1900
Sample Delay (msec):    10
Number Samples:   3
STF (usec):      150
STRP (#samples):       35
STRI (usec):       60
MTF (ms):        0
MTF (#samples):     0
MTRP (#samples):        0
MTRI (usec):      100
PQLen:     4
Ambient Light Source Power: Off
PAR (uMol/m^2/s):900.00
Comment:
Depth(m):   4.0
Temperature(C):  47.0
Battery(V):  16.19

         Time    EX   Fl-Yield 
DATA--------------------------
   0         0     0       0.0 
   1         1   156      -4.3 
   2         2   817      77.1 
   3         3   953      94.4 
   4         4   969      37.5 
   5         5   972     107.3 
   6         6   973     104.1 
   7         7   973      86.7 
   8         8   977     115.7 
   9         9   974      98.9 
  10        10   975     116.9 
  11        11   976     101.1 
  12        12   977     113.6 
  13        13   977     119.4 
  14        14   977      68.2 
  15        15   977     106.8 
  16        16   978     143.8 
  17        17   980      82.3 
  18        18   977      88.0 
  19        19   978     108.0 
  20        20   979     109.6 
  21        21   980     127.6 
  22        22   979     102.1 
  23        23   979     101.8 
  24        24   979     133.8 
  25        25   980     123.1 
  26        26   980      94.9 
  27        27   978     135.7 
  28        28   980     148.3 
  29        29   980     168.4 
  30        30   980     116.7 
  31        31   980     114.6 
  32        32   980     128.2 
  33        33   980     144.6 
  34        34   981     119.3 
  35        35   981     141.4 
  36        36   980     137.8 
  37        37   981     153.6 
  38        38   980     187.1 
  39        39   981     116.5 
  40        40   980     161.9 
  41        41   981     134.9 
  42        42   980     181.0 
  43        43   982     143.9 
  44        44   981     112.1 
  45        45   980     149.7 
  46        46   981     142.4 
  47        47   982     184.3 
  48        48   982     133.1 
  49        49   981     156.0 
  50        50   981     154.9 
  51        51   980     148.3 
  52        52   983      82.1 
  53        53   981     110.4 
  54        54   981     145.1 
  55        55   981     153.9 
  56        56   982      92.7 
  57        57   982     120.5 
  58        58   981     122.7 
  59        59   981     150.2 
  60        60   980     131.6 
  61        61   983     116.6 
  62        62   981     129.1 
  63        63   981     170.9 
  64        64   981     111.1 
  65        65   982     121.5 
  66        66   982     120.2 
  67        67   981      86.3 
  68        68   981     165.8 
  69        69   981     105.3 
  70        70   983     114.3 
  71        71   980      84.0 
  72        72   981     160.0 
  73        73   981     138.3 
  74        74   982      69.9 
  75        75   981     133.2 
  76        76   980     107.8 
  77        77   980     147.3 
  78        78   982      72.6 
  79        79   982      77.4 
  80        80   980      99.7 
  81        81   981     133.5 
  82        82   980     115.3 
  83        83   982      82.1 
  84        84   980      98.3 
  85        85   980     136.4 
  86        86   980     105.1 
  87        87   982      84.2 
  88        88   981      76.1 
  89        89   980      91.2 
  90        90   981      92.8 
  91        91   981      75.4 
  92        92   982      91.0 
  93        93   980      96.3 
  94        94   980     102.7 
  95        95   980      95.9 
  96        96   982     101.5 
  97        97   981      95.1 
  98        98   980     109.5 
  99        99   980     138.1 
 100       100   980      96.6 
 101       101   981      66.9 
 102       102   980      85.0 
 103       103   980     106.1 
 104       104   980      98.0 
 105       105   982      90.3 
 106       106   980     106.5 
 107       107   980     100.3 
 108       108   980     117.7 
 109       109   981      87.3 
 110       110   980      90.1 
 111       111   980     104.8 
 112       112   980     129.9 
 113       113   980      53.7 
 114       114   981      46.9 
 115       115   980      95.6 
 116       116   980     117.3 
 117       117   980     104.4 
 118       118   980      62.6 
 119       119   980     120.1 
 120       120   979      95.0 
 121       121   980     104.4 
 122       122   980     129.6 
 123       123   981     131.2 
 124       124   979      88.9 
 125       125   980     125.2 
 126       126   980      71.1 
 127       127   981     129.8 
 128       128   980     107.5 
 129       129   979     125.3 
 130       130   979     154.6 
 131       131   980     169.4 
 132       132   980     128.9 
 133       133   979     169.9 
 134       134   979     140.3 
 135       135   979     112.4 
 136       136   980     151.7 
 137       137   979     143.3 
 138       138   979     146.7 
 139       139   979     119.5 
 140       140   980     121.4 
 141       141   980     125.2 
 142       142   978     122.0 
 143       143   980     148.0 
 144       144   979      90.9 
 145       145   980     101.0 
 146       146   978     121.0 
 147       147   979     187.9 
 148       148   979      87.2 
 149       149   979     141.6 
 150       150   979     141.6 
 151       210  1000      60.3 
 152       270   997     108.0 
 153       330  1000      30.0 
 154       390   996     170.7 
 155       450   996      57.6 
 156       510   996     194.8 
 157       570   994     -12.7 
 158       630   998      88.8 
 159       810   983      15.9 
 160       990   980     224.1 
 161      1170   985     136.4 
 162      1350   986     101.1 
 163      1530   981     207.6 
 164      2070   980      60.9 
 165      2691   973     163.4 
 166      3405   978     121.0 
 167      4226   978     235.2 
 168      5170   976      54.3 
 169      6256   975     148.0 
 170      7505   974     248.8 
 171      8941   977     -36.8 
 172     10592   975     198.6 
 173     12491   973      91.8 
 174     14675   979      -5.4 
 175     17187   975      26.7 
 176     20076   974     191.3 
 177     23398   977     147.4 
 178     27218   979     182.2 
 179     31611   980       7.1 
 180     36663   980     170.1 
 181     42473   977     143.0 
 182     49155   978      -5.1 
 183     56839   980     270.7 
 184     65676   977      67.6 
 185     75839   981      67.6 
   1         1   156    -119.7 
   2         2   817     120.0 
   3         3   953     119.3 
   4         4   969      65.7 
   5         5   972      69.6 
   6         6   973     119.6 
   7         7   973      98.7 
   8         8   977     116.0 
   9         9   974     161.2 
  10        10   975     201.7 
  11        11   976     274.2 
  12        12   977     214.9 
  13        13   977     215.6 
  14        14   977     247.4 
  15        15   977     247.7 
  16        16   978     275.1 
  17        17   980     233.0 
  18        18   977     229.6 
  19        19   978     209.3 
  20        20   979     202.6 
  21        21   980     195.6 
  22        22   979     200.9 
  23        23   979     164.1 
  24        24   979     140.3 
  25        25   980     140.8 
  26        26   980     133.7 
  27        27   978     151.0 
  28        28   980     144.6 
  29        29   980     126.2 
  30        30   980     117.0 
  31        31   980     126.2 
  32        32   980     135.4 
  33        33   980     145.2 
  34        34   981     125.0 
  35        35   981      91.7 
  36        36   980     115.3 
  37        37   981     107.4 
  38        38   980     136.7 
  39        39   981     140.0 
  40        40   980      97.3 
  41        41   981     142.4 
  42        42   980     136.1 
  43        43   982     103.2 
  44        44   981      99.2 
  45        45   980     113.9 
  46        46   981     116.9 
  47        47   982      90.3 
  48        48   982     140.2 
  49        49   981     177.0 
  50        50   981     154.9 
  51        51   980     135.7 
  52        52   983     122.8 
  53        53   981     118.9 
  54        54   981     166.8 
  55        55   981     165.1 
  56        56   982     129.7 
  57        57   982     152.4 
  58        58   981     141.7 
  59        59   981     174.0 
  60        60   980     122.1 
  61        61   983     148.2 
  62        62   981     147.1 
  63        63   981     172.3 
  64        64   981     156.6 
  65        65   982     143.9 
  66        66   982     117.1 
  67        67   981     154.6 
  68        68   981     163.4 
  69        69   981     112.8 
  70        70   983     106.5 
  71        71   980     101.4 
  72        72   981     163.4 
  73        73   981     156.3 
  74        74   982     103.5 
  75        75   981     123.0 
  76        76   980     125.5 
  77        77   980      70.7 
  78        78   982     122.5 
  79        79   982     113.4 
  80        80   980     113.3 
  81        81   981     153.9 
  82        82   980      68.4 
  83        83   982     142.2 
  84        84   980     140.1 
  85        85   980     161.2 
  86        86   980     126.5 
  87        87   982      55.3 
  88        88   981     110.4 
  89        89   980     152.4 
  90        90   981     134.9 
  91        91   981     153.6 
  92        92   982     103.9 
  93        93   980     103.4 
  94        94   980     133.7 
  95        95   980     138.8 
  96        96   982     140.5 
  97        97   981     132.5 
  98        98   980     108.2 
  99        99   980     138.4 
 100       100   980      71.1 
 101       101   981     176.0 
 102       102   980     160.9 
 103       103   980     148.3 
 104       104   980     119.0 
 105       105   982      76.4 
 106       106   980     173.5 
 107       107   980     156.1 
 108       108   980     153.4 
 109       109   981     158.0 
 110       110   980     120.1 
 111       111   980     138.4 
 112       112   980     188.1 
 113       113   980     142.9 
 114       114   981     157.0 
 115       115   980     144.2 
 116       116   980     145.2 
 117       117   980     108.8 
 118       118   980     148.6 
 119       119   980     150.0 
 120       120   979     146.1 
 121       121   980     133.3 
 122       122   980     124.8 
 123       123   981     162.8 
 124       124   979     175.7 
 125       125   980     184.0 
 126       126   980     152.0 
 127       127   981     122.0 
 128       128   980     162.9 
 129       129   979     157.3 
 130       130   979     133.5 
 131       131   980     138.1 
 132       132   980     152.7 
 133       133   979     167.9 
 134       134   979     138.9 
 135       135   979     127.3 
 136       136   980     136.1 
 137       137   979     157.0 
 138       138   979     157.0 
 139       139   979     135.9 
 140       140   980     101.4 
 141       141   980     160.2 
 142       142   978     135.7 
 143       143   980     180.6 
 144       144   979     128.0 
 145       145   980     126.9 
 146       146   978     141.1 
 147       147   979     144.7 
 148       148   979     147.8 
 149       149   979     120.2 
 150       150   979     120.2 
 151       210  1000      64.3 
 152       270   997     117.7 
 153       330  1000     103.7 
 154       390   996     117.5 
 155       450   996     132.5 
 156       510   996      18.1 
 157       570   994      54.3 
 158       630   998     143.6 
 159       810   983     166.5 
 160       990   980     223.5 
 161      1170   985     142.1 
 162      1350   986     115.6 
 163      1530   981      22.4 
 164      2070   980      65.6 
 165      2691   973      58.2 
 166      3405   978     114.5 
 167      4226   978     107.4 
 168      5170   976     113.0 
 169      6256   975     256.8 
 170      7505   974     113.6 
 171      8941   977     147.4 
 172     10592   975     154.9 
 173     12491   973     152.1 
 174     14675   979     173.6 
 175     17187   975     192.8 
 176     20076   974      90.7 
 177     23398   977      97.6 
 178     27218   979     303.0 
 179     31611   980     229.9 
 180     36663   980     142.9 
 181     42473   977     147.7 
 182     49155   978     124.4 
 183     56839   980     183.3 
 184     65676   977      16.7 
 185     75839   981      16.7 
