PC/104 FIRe Fluorometer 2.0.0
 4/ 8/2025     33218
LED Color:           blue
Gain:               1800
Sample Delay (msec):    10
Number Samples:   3
STF (usec):      150
STRP (#samples):       35
STRI (usec):       60
MTF (ms):        0
MTF (#samples):     0
MTRP (#samples):        0
MTRI (usec):      100
PQLen:     4
Ambient Light Source Power: Off
PAR (uMol/m^2/s):747.28
Comment:
Depth(m):   1.1
Temperature(C):  65.6
Battery(V):  15.15

         Time    EX   Fl-Yield 
DATA--------------------------
   0         0     0       0.0 
   1         1   156      81.2 
   2         2   817     250.9 
   3         3   953     336.8 
   4         4   969     359.5 
   5         5   972     364.9 
   6         6   973     336.8 
   7         7   973     366.9 
   8         8   977     363.7 
   9         9   974     362.1 
  10        10   975     385.0 
  11        11   976     354.2 
  12        12   977     402.9 
  13        13   977     426.1 
  14        14   977     398.2 
  15        15   977     392.7 
  16        16   978     410.4 
  17        17   980     416.3 
  18        18   977     413.9 
  19        19   978     418.9 
  20        20   979     419.8 
  21        21   980     428.9 
  22        22   979     471.9 
  23        23   979     463.4 
  24        24   979     430.7 
  25        25   980     411.6 
  26        26   980     449.0 
  27        27   978     480.6 
  28        28   980     442.2 
  29        29   980     465.3 
  30        30   980     468.7 
  31        31   980     467.0 
  32        32   980     517.3 
  33        33   980     472.1 
  34        34   981     501.9 
  35        35   981     513.8 
  36        36   980     509.5 
  37        37   981     536.5 
  38        38   980     520.7 
  39        39   981     526.0 
  40        40   980     523.1 
  41        41   981     537.2 
  42        42   980     525.2 
  43        43   982     529.9 
  44        44   981     523.3 
  45        45   980     553.4 
  46        46   981     503.9 
  47        47   982     499.0 
  48        48   982     548.9 
  49        49   981     536.2 
  50        50   981     524.3 
  51        51   980     535.7 
  52        52   983     555.4 
  53        53   981     529.7 
  54        54   981     557.9 
  55        55   981     527.0 
  56        56   982     522.4 
  57        57   982     529.9 
  58        58   981     527.4 
  59        59   981     556.2 
  60        60   980     531.6 
  61        61   983     525.3 
  62        62   981     542.6 
  63        63   981     544.3 
  64        64   981     551.8 
  65        65   982     537.0 
  66        66   982     560.1 
  67        67   981     554.9 
  68        68   981     540.3 
  69        69   981     543.3 
  70        70   983     548.7 
  71        71   980     567.3 
  72        72   981     531.8 
  73        73   981     519.2 
  74        74   982     544.5 
  75        75   981     566.8 
  76        76   980     555.4 
  77        77   980     561.2 
  78        78   982     533.6 
  79        79   982     567.5 
  80        80   980     540.8 
  81        81   981     524.3 
  82        82   980     528.6 
  83        83   982     536.3 
  84        84   980     549.7 
  85        85   980     541.2 
  86        86   980     523.1 
  87        87   982     535.6 
  88        88   981     540.6 
  89        89   980     546.3 
  90        90   981     559.3 
  91        91   981     557.9 
  92        92   982     527.8 
  93        93   980     543.2 
  94        94   980     529.9 
  95        95   980     519.7 
  96        96   982     527.5 
  97        97   981     550.5 
  98        98   980     546.6 
  99        99   980     533.0 
 100       100   980     523.5 
 101       101   981     528.0 
 102       102   980     544.9 
 103       103   980     542.2 
 104       104   980     537.8 
 105       105   982     545.1 
 106       106   980     538.8 
 107       107   980     568.7 
 108       108   980     529.9 
 109       109   981     531.4 
 110       110   980     560.5 
 111       111   980     552.4 
 112       112   980     533.7 
 113       113   980     551.0 
 114       114   981     535.8 
 115       115   980     571.1 
 116       116   980     569.7 
 117       117   980     536.1 
 118       118   980     557.8 
 119       119   980     523.1 
 120       120   979     548.2 
 121       121   980     540.5 
 122       122   980     543.9 
 123       123   981     525.3 
 124       124   979     524.0 
 125       125   980     537.4 
 126       126   980     506.1 
 127       127   981     553.9 
 128       128   980     546.6 
 129       129   979     516.5 
 130       130   979     535.9 
 131       131   980     528.2 
 132       132   980     529.3 
 133       133   979     551.6 
 134       134   979     549.5 
 135       135   979     532.2 
 136       136   980     520.1 
 137       137   979     535.9 
 138       138   979     535.9 
 139       139   979     488.6 
 140       140   980     531.3 
 141       141   980     517.0 
 142       142   978     537.2 
 143       143   980     524.1 
 144       144   979     525.4 
 145       145   980     526.2 
 146       146   978     535.1 
 147       147   979     534.6 
 148       148   979     497.1 
 149       149   979     539.7 
 150       150   979     539.7 
 151       210  1000     562.3 
 152       270   997     544.3 
 153       330  1000     512.0 
 154       390   996     502.0 
 155       450   996     473.6 
 156       510   996     461.8 
 157       570   994     435.9 
 158       630   998     466.6 
 159       810   983     423.2 
 160       990   980     456.8 
 161      1170   985     498.8 
 162      1350   986     402.0 
 163      1530   981     402.0 
 164      2070   980     364.6 
 165      2691   973     486.5 
 166      3405   978     358.2 
 167      4226   978     361.3 
 168      5170   976     406.1 
 169      6256   975     382.9 
 170      7505   974     343.9 
 171      8941   977     428.2 
 172     10592   975     381.9 
 173     12491   973     393.6 
 174     14675   979     374.5 
 175     17187   975     365.1 
 176     20076   974     349.8 
 177     23398   977     358.9 
 178     27218   979     410.6 
 179     31611   980     346.6 
 180     36663   980     343.2 
 181     42473   977     313.9 
 182     49155   978     393.3 
 183     56839   980     333.7 
 184     65676   977     419.7 
 185     75839   981     419.7 
   1         1   156     656.0 
   2         2   817     645.0 
   3         3   953     633.1 
   4         4   969     633.3 
   5         5   972     638.2 
   6         6   973     654.0 
   7         7   973     648.9 
   8         8   977     681.3 
   9         9   974     674.5 
  10        10   975     722.7 
  11        11   976     726.8 
  12        12   977     712.7 
  13        13   977     749.6 
  14        14   977     752.3 
  15        15   977     745.8 
  16        16   978     697.3 
  17        17   980     723.1 
  18        18   977     732.5 
  19        19   978     743.7 
  20        20   979     713.7 
  21        21   980     668.7 
  22        22   979     706.5 
  23        23   979     709.9 
  24        24   979     696.6 
  25        25   980     692.9 
  26        26   980     692.9 
  27        27   978     702.5 
  28        28   980     694.9 
  29        29   980     674.8 
  30        30   980     685.0 
  31        31   980     680.3 
  32        32   980     707.8 
  33        33   980     682.0 
  34        34   981     673.5 
  35        35   981     674.8 
  36        36   980     679.6 
  37        37   981     720.0 
  38        38   980     707.8 
  39        39   981     694.2 
  40        40   980     691.2 
  41        41   981     708.8 
  42        42   980     693.2 
  43        43   982     704.3 
  44        44   981     707.8 
  45        45   980     709.5 
  46        46   981     696.9 
  47        47   982     690.4 
  48        48   982     718.6 
  49        49   981     691.8 
  50        50   981     721.7 
  51        51   980     713.3 
  52        52   983     664.6 
  53        53   981     695.9 
  54        54   981     747.9 
  55        55   981     691.1 
  56        56   982     711.5 
  57        57   982     710.5 
  58        58   981     737.0 
  59        59   981     722.1 
  60        60   980     703.4 
  61        61   983     689.0 
  62        62   981     719.7 
  63        63   981     699.3 
  64        64   981     688.8 
  65        65   982     716.2 
  66        66   982     683.0 
  67        67   981     714.9 
  68        68   981     678.2 
  69        69   981     683.3 
  70        70   983     698.9 
  71        71   980     675.9 
  72        72   981     693.8 
  73        73   981     705.4 
  74        74   982     676.5 
  75        75   981     677.9 
  76        76   980     695.2 
  77        77   980     722.4 
  78        78   982     650.7 
  79        79   982     672.1 
  80        80   980     666.0 
  81        81   981     700.0 
  82        82   980     675.2 
  83        83   982     672.4 
  84        84   980     672.4 
  85        85   980     698.3 
  86        86   980     703.4 
  87        87   982     659.5 
  88        88   981     668.4 
  89        89   980     675.2 
  90        90   981     691.5 
  91        91   981     674.1 
  92        92   982     669.0 
  93        93   980     676.2 
  94        94   980     654.4 
  95        95   980     672.1 
  96        96   982     704.3 
  97        97   981     672.4 
  98        98   980     657.8 
  99        99   980     664.3 
 100       100   980     670.7 
 101       101   981     690.5 
 102       102   980     688.4 
 103       103   980     698.6 
 104       104   980     688.1 
 105       105   982     677.5 
 106       106   980     671.1 
 107       107   980     716.0 
 108       108   980     696.3 
 109       109   981     648.3 
 110       110   980     698.3 
 111       111   980     667.3 
 112       112   980     710.9 
 113       113   980     679.6 
 114       114   981     636.1 
 115       115   980     682.7 
 116       116   980     665.3 
 117       117   980     668.7 
 118       118   980     675.5 
 119       119   980     688.1 
 120       120   979     684.7 
 121       121   980     690.8 
 122       122   980     657.5 
 123       123   981     713.6 
 124       124   979     694.2 
 125       125   980     721.8 
 126       126   980     689.8 
 127       127   981     694.5 
 128       128   980     696.3 
 129       129   979     703.8 
 130       130   979     743.3 
 131       131   980     698.0 
 132       132   980     710.2 
 133       133   979     722.8 
 134       134   979     714.0 
 135       135   979     723.2 
 136       136   980     735.4 
 137       137   979     729.3 
 138       138   979     725.2 
 139       139   979     740.2 
 140       140   980     689.5 
 141       141   980     717.7 
 142       142   978     716.1 
 143       143   980     750.7 
 144       144   979     710.9 
 145       145   980     735.0 
 146       146   978     693.9 
 147       147   979     713.7 
 148       148   979     730.0 
 149       149   979     732.7 
 150       150   979     732.7 
 151       210  1000     652.0 
 152       270   997     754.9 
 153       330  1000     634.7 
 154       390   996     727.2 
 155       450   996     679.4 
 156       510   996     764.1 
 157       570   994     715.3 
 158       630   998     759.5 
 159       810   983     649.7 
 160       990   980     659.5 
 161      1170   985     645.7 
 162      1350   986     634.6 
 163      1530   981     700.0 
 164      2070   980     653.4 
 165      2691   973     591.6 
 166      3405   978     691.9 
 167      4226   978     568.8 
 168      5170   976     708.7 
 169      6256   975     589.7 
 170      7505   974     601.0 
 171      8941   977     612.8 
 172     10592   975     575.7 
 173     12491   973     555.3 
 174     14675   979     510.4 
 175     17187   975     507.4 
 176     20076   974     521.2 
 177     23398   977     528.8 
 178     27218   979     493.4 
 179     31611   980     487.8 
 180     36663   980     480.6 
 181     42473   977     453.1 
 182     49155   978     431.5 
 183     56839   980     473.5 
 184     65676   977     467.1 
 185     75839   981     467.1 
