PC/104 FIRe Fluorometer 2.0.0
 4/ 8/2025     29458
LED Color:           blue
Gain:               1800
Sample Delay (msec):    10
Number Samples:   3
STF (usec):      150
STRP (#samples):       35
STRI (usec):       60
MTF (ms):        0
MTF (#samples):     0
MTRP (#samples):        0
MTRI (usec):      100
PQLen:     4
Ambient Light Source Power: Off
PAR (uMol/m^2/s):336.24
Comment:
Depth(m):   2.9
Temperature(C):  52.6
Battery(V):  15.99

         Time    EX   Fl-Yield 
DATA--------------------------
   0         0     0       0.0 
   1         1   156      96.2 
   2         2   817     424.7 
   3         3   953     384.1 
   4         4   969     410.7 
   5         5   972     380.3 
   6         6   973     420.7 
   7         7   973     416.6 
   8         8   977     471.5 
   9         9   974     469.9 
  10        10   975     448.2 
  11        11   976     490.4 
  12        12   977     464.7 
  13        13   977     502.6 
  14        14   977     522.3 
  15        15   977     535.0 
  16        16   978     531.7 
  17        17   980     502.0 
  18        18   977     512.5 
  19        19   978     516.7 
  20        20   979     568.3 
  21        21   980     540.1 
  22        22   979     544.4 
  23        23   979     543.4 
  24        24   979     610.8 
  25        25   980     585.4 
  26        26   980     573.8 
  27        27   978     560.0 
  28        28   980     611.2 
  29        29   980     596.9 
  30        30   980     576.2 
  31        31   980     639.8 
  32        32   980     612.9 
  33        33   980     627.6 
  34        34   981     596.7 
  35        35   981     577.3 
  36        36   980     624.8 
  37        37   981     668.4 
  38        38   980     628.9 
  39        39   981     625.6 
  40        40   980     634.4 
  41        41   981     619.1 
  42        42   980     636.4 
  43        43   982     672.1 
  44        44   981     625.6 
  45        45   980     640.1 
  46        46   981     623.2 
  47        47   982     678.2 
  48        48   982     647.3 
  49        49   981     669.4 
  50        50   981     666.0 
  51        51   980     660.9 
  52        52   983     667.7 
  53        53   981     656.5 
  54        54   981     693.2 
  55        55   981     703.7 
  56        56   982     696.5 
  57        57   982     704.0 
  58        58   981     695.2 
  59        59   981     671.8 
  60        60   980     705.4 
  61        61   983     649.7 
  62        62   981     697.2 
  63        63   981     685.4 
  64        64   981     690.8 
  65        65   982     671.8 
  66        66   982     741.0 
  67        67   981     705.4 
  68        68   981     671.8 
  69        69   981     709.1 
  70        70   983     669.7 
  71        71   980     694.2 
  72        72   981     698.9 
  73        73   981     686.4 
  74        74   982     695.5 
  75        75   981     682.0 
  76        76   980     693.5 
  77        77   980     705.1 
  78        78   982     710.1 
  79        79   982     695.5 
  80        80   980     699.7 
  81        81   981     677.9 
  82        82   980     722.1 
  83        83   982     707.7 
  84        84   980     715.6 
  85        85   980     747.6 
  86        86   980     707.8 
  87        87   982     731.2 
  88        88   981     708.8 
  89        89   980     726.5 
  90        90   981     753.0 
  91        91   981     750.6 
  92        92   982     707.4 
  93        93   980     715.3 
  94        94   980     729.9 
  95        95   980     759.2 
  96        96   982     744.4 
  97        97   981     730.2 
  98        98   980     750.0 
  99        99   980     732.7 
 100       100   980     730.3 
 101       101   981     743.5 
 102       102   980     725.5 
 103       103   980     703.7 
 104       104   980     710.5 
 105       105   982     709.4 
 106       106   980     686.7 
 107       107   980     727.9 
 108       108   980     741.8 
 109       109   981     724.8 
 110       110   980     688.4 
 111       111   980     743.2 
 112       112   980     748.6 
 113       113   980     718.4 
 114       114   981     732.2 
 115       115   980     704.8 
 116       116   980     708.5 
 117       117   980     702.0 
 118       118   980     711.9 
 119       119   980     718.0 
 120       120   979     688.1 
 121       121   980     698.0 
 122       122   980     721.4 
 123       123   981     713.2 
 124       124   979     723.5 
 125       125   980     735.4 
 126       126   980     709.2 
 127       127   981     699.6 
 128       128   980     700.0 
 129       129   979     684.4 
 130       130   979     687.4 
 131       131   980     703.7 
 132       132   980     680.6 
 133       133   979     684.0 
 134       134   979     697.7 
 135       135   979     697.7 
 136       136   980     706.5 
 137       137   979     677.6 
 138       138   979     663.3 
 139       139   979     687.1 
 140       140   980     737.4 
 141       141   980     703.1 
 142       142   978     687.5 
 143       143   980     698.6 
 144       144   979     689.8 
 145       145   980     690.8 
 146       146   978     678.3 
 147       147   979     679.6 
 148       148   979     693.2 
 149       149   979     685.4 
 150       150   979     685.4 
 151       210  1000     816.3 
 152       270   997     700.1 
 153       330  1000     668.0 
 154       390   996     573.0 
 155       450   996     685.4 
 156       510   996     592.7 
 157       570   994     642.2 
 158       630   998     587.5 
 159       810   983     519.8 
 160       990   980     574.5 
 161      1170   985     540.4 
 162      1350   986     504.1 
 163      1530   981     590.6 
 164      2070   980     540.1 
 165      2691   973     532.7 
 166      3405   978     491.8 
 167      4226   978     459.1 
 168      5170   976     503.1 
 169      6256   975     486.8 
 170      7505   974     516.8 
 171      8941   977     396.5 
 172     10592   975     441.7 
 173     12491   973     395.0 
 174     14675   979     455.9 
 175     17187   975     393.2 
 176     20076   974     438.4 
 177     23398   977     484.5 
 178     27218   979     384.7 
 179     31611   980     472.4 
 180     36663   980     432.0 
 181     42473   977     447.6 
 182     49155   978     461.8 
 183     56839   980     462.2 
 184     65676   977     414.2 
 185     75839   981     414.2 
   1         1   156     779.9 
   2         2   817     789.1 
   3         3   953     849.2 
   4         4   969     831.1 
   5         5   972     862.1 
   6         6   973     841.7 
   7         7   973     841.0 
   8         8   977     847.2 
   9         9   974     898.7 
  10        10   975     888.5 
  11        11   976     901.3 
  12        12   977     889.1 
  13        13   977     901.7 
  14        14   977     890.8 
  15        15   977     950.9 
  16        16   978     930.8 
  17        17   980     930.3 
  18        18   977     909.6 
  19        19   978     938.7 
  20        20   979     897.5 
  21        21   980     904.8 
  22        22   979     887.0 
  23        23   979     897.9 
  24        24   979     859.4 
  25        25   980     877.9 
  26        26   980     839.8 
  27        27   978     873.9 
  28        28   980     885.0 
  29        29   980     880.3 
  30        30   980     878.6 
  31        31   980     869.7 
  32        32   980     883.3 
  33        33   980     880.3 
  34        34   981     853.9 
  35        35   981     848.8 
  36        36   980     852.4 
  37        37   981     871.9 
  38        38   980     893.5 
  39        39   981     907.6 
  40        40   980     894.6 
  41        41   981     867.5 
  42        42   980     890.8 
  43        43   982     871.0 
  44        44   981     901.1 
  45        45   980     871.8 
  46        46   981     913.7 
  47        47   982     863.5 
  48        48   982     867.3 
  49        49   981     901.5 
  50        50   981     941.2 
  51        51   980     906.8 
  52        52   983     930.1 
  53        53   981     890.9 
  54        54   981     915.4 
  55        55   981     910.3 
  56        56   982     917.5 
  57        57   982     890.7 
  58        58   981     872.9 
  59        59   981     916.4 
  60        60   980     894.9 
  61        61   983     909.1 
  62        62   981     896.0 
  63        63   981     914.0 
  64        64   981     882.4 
  65        65   982     901.2 
  66        66   982     887.6 
  67        67   981     901.8 
  68        68   981     904.5 
  69        69   981     880.1 
  70        70   983     903.4 
  71        71   980     883.0 
  72        72   981     921.8 
  73        73   981     901.5 
  74        74   982     905.3 
  75        75   981     876.7 
  76        76   980     896.9 
  77        77   980     915.3 
  78        78   982     887.6 
  79        79   982     902.2 
  80        80   980     917.3 
  81        81   981     910.0 
  82        82   980     891.5 
  83        83   982     917.9 
  84        84   980     883.7 
  85        85   980     895.9 
  86        86   980     926.5 
  87        87   982     923.3 
  88        88   981     892.3 
  89        89   980     913.3 
  90        90   981     929.3 
  91        91   981     881.4 
  92        92   982     934.8 
  93        93   980     888.4 
  94        94   980     919.0 
  95        95   980     910.5 
  96        96   982     930.4 
  97        97   981     915.7 
  98        98   980     928.9 
  99        99   980     906.5 
 100       100   980     909.2 
 101       101   981     931.4 
 102       102   980     921.1 
 103       103   980     911.6 
 104       104   980     905.1 
 105       105   982     897.1 
 106       106   980     901.4 
 107       107   980     906.1 
 108       108   980     891.2 
 109       109   981     927.3 
 110       110   980     896.9 
 111       111   980     911.9 
 112       112   980     920.7 
 113       113   980     938.1 
 114       114   981     926.9 
 115       115   980     928.2 
 116       116   980     888.8 
 117       117   980     926.5 
 118       118   980     923.8 
 119       119   980     931.0 
 120       120   979     932.9 
 121       121   980     952.4 
 122       122   980     901.4 
 123       123   981     953.4 
 124       124   979     896.8 
 125       125   980     956.1 
 126       126   980     917.0 
 127       127   981     946.0 
 128       128   980     897.6 
 129       129   979     927.8 
 130       130   979     946.2 
 131       131   980     961.2 
 132       132   980     944.2 
 133       133   979     972.4 
 134       134   979     923.4 
 135       135   979     945.9 
 136       136   980     952.4 
 137       137   979     965.3 
 138       138   979     949.6 
 139       139   979     957.4 
 140       140   980     960.9 
 141       141   980     953.4 
 142       142   978     941.7 
 143       143   980     940.8 
 144       144   979     949.6 
 145       145   980     960.9 
 146       146   978     929.1 
 147       147   979     919.0 
 148       148   979     989.8 
 149       149   979     959.8 
 150       150   979     959.8 
 151       210  1000     919.7 
 152       270   997     924.1 
 153       330  1000     972.3 
 154       390   996     889.2 
 155       450   996     907.0 
 156       510   996     935.4 
 157       570   994     907.8 
 158       630   998     929.5 
 159       810   983     927.4 
 160       990   980     916.3 
 161      1170   985     901.5 
 162      1350   986     919.2 
 163      1530   981     853.9 
 164      2070   980     886.4 
 165      2691   973     878.7 
 166      3405   978     863.3 
 167      4226   978     850.7 
 168      5170   976     816.3 
 169      6256   975     793.2 
 170      7505   974     817.2 
 171      8941   977     804.8 
 172     10592   975     858.1 
 173     12491   973     802.3 
 174     14675   979     756.6 
 175     17187   975     738.8 
 176     20076   974     740.9 
 177     23398   977     755.0 
 178     27218   979     679.9 
 179     31611   980     699.3 
 180     36663   980     611.9 
 181     42473   977     555.8 
 182     49155   978     625.4 
 183     56839   980     635.0 
 184     65676   977     528.5 
 185     75839   981     528.5 
