PC/104 FIRe Fluorometer 2.0.0
 4/ 8/2025     40318
LED Color:           blue
Gain:               1900
Sample Delay (msec):    10
Number Samples:   3
STF (usec):      150
STRP (#samples):       35
STRI (usec):       60
MTF (ms):        0
MTF (#samples):     0
MTRP (#samples):        0
MTRI (usec):      100
PQLen:     4
Ambient Light Source Power: Off
PAR (uMol/m^2/s):894.85
Comment:
Depth(m):  -2.0
Temperature(C):  76.0
Battery(V):  14.01

         Time    EX   Fl-Yield 
DATA--------------------------
   0         0     0       0.0 
   1         1   156     232.9 
   2         2   817     218.7 
   3         3   953     234.7 
   4         4   969     303.7 
   5         5   972     279.8 
   6         6   973     251.8 
   7         7   973     270.6 
   8         8   977     296.5 
   9         9   974     303.2 
  10        10   975     252.0 
  11        11   976     271.5 
  12        12   977     285.9 
  13        13   977     320.7 
  14        14   977     311.2 
  15        15   977     273.3 
  16        16   978     294.8 
  17        17   980     302.7 
  18        18   977     320.4 
  19        19   978     287.0 
  20        20   979     297.9 
  21        21   980     284.0 
  22        22   979     365.3 
  23        23   979     293.8 
  24        24   979     310.2 
  25        25   980     340.5 
  26        26   980     362.9 
  27        27   978     316.3 
  28        28   980     321.8 
  29        29   980     335.0 
  30        30   980     362.6 
  31        31   980     355.4 
  32        32   980     330.6 
  33        33   980     329.3 
  34        34   981     355.1 
  35        35   981     399.3 
  36        36   980     327.6 
  37        37   981     353.0 
  38        38   980     349.7 
  39        39   981     434.3 
  40        40   980     366.7 
  41        41   981     363.6 
  42        42   980     387.4 
  43        43   982     429.1 
  44        44   981     416.6 
  45        45   980     351.7 
  46        46   981     351.0 
  47        47   982     382.6 
  48        48   982     450.4 
  49        49   981     386.0 
  50        50   981     407.1 
  51        51   980     406.5 
  52        52   983     452.0 
  53        53   981     413.5 
  54        54   981     401.0 
  55        55   981     410.8 
  56        56   982     440.9 
  57        57   982     493.2 
  58        58   981     419.0 
  59        59   981     389.4 
  60        60   980     425.2 
  61        61   983     486.6 
  62        62   981     452.9 
  63        63   981     420.0 
  64        64   981     429.5 
  65        65   982     473.5 
  66        66   982     463.3 
  67        67   981     407.1 
  68        68   981     438.0 
  69        69   981     465.5 
  70        70   983     446.3 
  71        71   980     406.1 
  72        72   981     394.8 
  73        73   981     458.4 
  74        74   982     434.5 
  75        75   981     392.8 
  76        76   980     402.7 
  77        77   980     418.4 
  78        78   982     455.2 
  79        79   982     392.1 
  80        80   980     386.7 
  81        81   981     382.3 
  82        82   980     435.0 
  83        83   982     420.9 
  84        84   980     408.8 
  85        85   980     395.6 
  86        86   980     443.5 
  87        87   982     425.3 
  88        88   981     413.2 
  89        89   980     377.6 
  90        90   981     392.1 
  91        91   981     462.5 
  92        92   982     447.0 
  93        93   980     398.6 
  94        94   980     384.7 
  95        95   980     414.3 
  96        96   982     447.7 
  97        97   981     386.3 
  98        98   980     398.6 
  99        99   980     421.8 
 100       100   980     437.8 
 101       101   981     407.4 
 102       102   980     415.3 
 103       103   980     397.3 
 104       104   980     433.0 
 105       105   982     407.7 
 106       106   980     371.8 
 107       107   980     390.5 
 108       108   980     425.5 
 109       109   981     411.1 
 110       110   980     384.0 
 111       111   980     361.9 
 112       112   980     390.1 
 113       113   980     438.1 
 114       114   981     382.6 
 115       115   980     377.9 
 116       116   980     363.6 
 117       117   980     421.8 
 118       118   980     418.0 
 119       119   980     404.8 
 120       120   979     382.0 
 121       121   980     406.8 
 122       122   980     429.9 
 123       123   981     365.3 
 124       124   979     363.0 
 125       125   980     388.4 
 126       126   980     405.8 
 127       127   981     388.4 
 128       128   980     353.4 
 129       129   979     355.5 
 130       130   979     398.0 
 131       131   980     409.2 
 132       132   980     345.2 
 133       133   979     365.3 
 134       134   979     403.5 
 135       135   979     401.4 
 136       136   980     381.0 
 137       137   979     375.9 
 138       138   979     362.3 
 139       139   979     431.7 
 140       140   980     400.3 
 141       141   980     393.5 
 142       142   978     366.1 
 143       143   980     396.9 
 144       144   979     419.1 
 145       145   980     352.0 
 146       146   978     363.7 
 147       147   979     374.9 
 148       148   979     400.1 
 149       149   979     407.2 
 150       150   979     407.2 
 151       210  1000     520.0 
 152       270   997     343.4 
 153       330  1000     295.3 
 154       390   996     544.5 
 155       450   996     427.4 
 156       510   996     368.5 
 157       570   994     318.2 
 158       630   998     337.7 
 159       810   983     396.1 
 160       990   980     402.0 
 161      1170   985     348.2 
 162      1350   986     356.3 
 163      1530   981     391.1 
 164      2070   980     304.4 
 165      2691   973     381.0 
 166      3405   978     252.6 
 167      4226   978     337.1 
 168      5170   976     221.7 
 169      6256   975     319.7 
 170      7505   974     274.8 
 171      8941   977     269.2 
 172     10592   975     225.3 
 173     12491   973     284.7 
 174     14675   979     302.7 
 175     17187   975     328.9 
 176     20076   974     266.9 
 177     23398   977     291.4 
 178     27218   979     308.5 
 179     31611   980     310.2 
 180     36663   980     307.8 
 181     42473   977     343.9 
 182     49155   978     312.2 
 183     56839   980     279.9 
 184     65676   977     274.0 
 185     75839   981     274.0 
   1         1   156     529.9 
   2         2   817     401.1 
   3         3   953     382.3 
   4         4   969     427.2 
   5         5   972     417.4 
   6         6   973     437.8 
   7         7   973     414.9 
   8         8   977     471.9 
   9         9   974     516.4 
  10        10   975     457.8 
  11        11   976     478.1 
  12        12   977     474.6 
  13        13   977     498.5 
  14        14   977     512.1 
  15        15   977     488.6 
  16        16   978     490.8 
  17        17   980     483.0 
  18        18   977     464.0 
  19        19   978     471.7 
  20        20   979     469.2 
  21        21   980     518.4 
  22        22   979     482.5 
  23        23   979     437.9 
  24        24   979     410.6 
  25        25   980     403.1 
  26        26   980     465.3 
  27        27   978     437.3 
  28        28   980     366.3 
  29        29   980     407.8 
  30        30   980     431.3 
  31        31   980     450.0 
  32        32   980     382.0 
  33        33   980     431.6 
  34        34   981     429.8 
  35        35   981     466.9 
  36        36   980     403.1 
  37        37   981     432.6 
  38        38   980     436.1 
  39        39   981     444.8 
  40        40   980     436.7 
  41        41   981     421.3 
  42        42   980     411.2 
  43        43   982     445.0 
  44        44   981     476.4 
  45        45   980     430.6 
  46        46   981     403.0 
  47        47   982     423.3 
  48        48   982     481.3 
  49        49   981     423.0 
  50        50   981     445.5 
  51        51   980     452.0 
  52        52   983     451.0 
  53        53   981     448.2 
  54        54   981     428.1 
  55        55   981     460.4 
  56        56   982     469.5 
  57        57   982     475.9 
  58        58   981     428.8 
  59        59   981     423.7 
  60        60   980     447.3 
  61        61   983     482.5 
  62        62   981     466.5 
  63        63   981     427.8 
  64        64   981     466.9 
  65        65   982     479.3 
  66        66   982     481.7 
  67        67   981     461.8 
  68        68   981     474.7 
  69        69   981     489.3 
  70        70   983     521.2 
  71        71   980     483.3 
  72        72   981     464.5 
  73        73   981     493.4 
  74        74   982     495.9 
  75        75   981     484.2 
  76        76   980     452.4 
  77        77   980     467.3 
  78        78   982     500.7 
  79        79   982     532.6 
  80        80   980     479.6 
  81        81   981     487.3 
  82        82   980     490.8 
  83        83   982     501.7 
  84        84   980     471.1 
  85        85   980     470.7 
  86        86   980     477.6 
  87        87   982     521.7 
  88        88   981     489.3 
  89        89   980     471.8 
  90        90   981     453.3 
  91        91   981     486.6 
  92        92   982     513.9 
  93        93   980     446.3 
  94        94   980     469.7 
  95        95   980     464.3 
  96        96   982     516.3 
  97        97   981     490.7 
  98        98   980     462.9 
  99        99   980     471.4 
 100       100   980     501.0 
 101       101   981     470.6 
 102       102   980     501.0 
 103       103   980     510.2 
 104       104   980     516.3 
 105       105   982     509.5 
 106       106   980     467.0 
 107       107   980     468.0 
 108       108   980     493.9 
 109       109   981     549.4 
 110       110   980     502.4 
 111       111   980     455.4 
 112       112   980     499.7 
 113       113   980     523.1 
 114       114   981     521.2 
 115       115   980     502.0 
 116       116   980     466.7 
 117       117   980     498.3 
 118       118   980     523.8 
 119       119   980     456.8 
 120       120   979     467.8 
 121       121   980     497.3 
 122       122   980     519.7 
 123       123   981     445.8 
 124       124   979     462.7 
 125       125   980     490.5 
 126       126   980     489.8 
 127       127   981     491.7 
 128       128   980     465.3 
 129       129   979     422.5 
 130       130   979     469.9 
 131       131   980     504.4 
 132       132   980     457.1 
 133       133   979     436.8 
 134       134   979     459.3 
 135       135   979     478.7 
 136       136   980     466.0 
 137       137   979     431.1 
 138       138   979     456.6 
 139       139   979     498.8 
 140       140   980     477.9 
 141       141   980     409.9 
 142       142   978     425.0 
 143       143   980     478.9 
 144       144   979     509.0 
 145       145   980     440.8 
 146       146   978     418.9 
 147       147   979     448.4 
 148       148   979     453.5 
 149       149   979     474.3 
 150       150   979     474.3 
 151       210  1000     462.3 
 152       270   997     378.8 
 153       330  1000     531.7 
 154       390   996     515.4 
 155       450   996     538.2 
 156       510   996     343.0 
 157       570   994     560.4 
 158       630   998     544.4 
 159       810   983     405.9 
 160       990   980     561.2 
 161      1170   985     501.9 
 162      1350   986     394.9 
 163      1530   981     483.5 
 164      2070   980     463.3 
 165      2691   973     552.9 
 166      3405   978     536.1 
 167      4226   978     579.4 
 168      5170   976     475.4 
 169      6256   975     515.6 
 170      7505   974     396.3 
 171      8941   977     418.6 
 172     10592   975     420.9 
 173     12491   973     452.9 
 174     14675   979     479.1 
 175     17187   975     379.5 
 176     20076   974     419.2 
 177     23398   977     409.1 
 178     27218   979     462.0 
 179     31611   980     500.0 
 180     36663   980     505.4 
 181     42473   977     436.0 
 182     49155   978     283.6 
 183     56839   980     318.0 
 184     65676   977     372.6 
 185     75839   981     372.6 
