PC/104 FIRe Fluorometer 2.0.0
 4/ 8/2025     27628
LED Color:           blue
Gain:               1800
Sample Delay (msec):    10
Number Samples:   3
STF (usec):      150
STRP (#samples):       35
STRI (usec):       60
MTF (ms):        0
MTF (#samples):     0
MTRP (#samples):        0
MTRI (usec):      100
PQLen:     4
Ambient Light Source Power: Off
PAR (uMol/m^2/s):900.00
Comment:
Depth(m):   3.3
Temperature(C):  43.7
Battery(V):  16.26

         Time    EX   Fl-Yield 
DATA--------------------------
   0         0     0       0.0 
   1         1   156     -19.2 
   2         2   817     281.5 
   3         3   953     352.9 
   4         4   969     344.3 
   5         5   972     318.9 
   6         6   973     318.6 
   7         7   973     369.0 
   8         8   977     385.9 
   9         9   974     390.1 
  10        10   975     349.4 
  11        11   976     367.1 
  12        12   977     408.4 
  13        13   977     402.6 
  14        14   977     348.3 
  15        15   977     399.9 
  16        16   978     427.7 
  17        17   980     435.7 
  18        18   977     430.2 
  19        19   978     418.5 
  20        20   979     457.6 
  21        21   980     485.0 
  22        22   979     470.2 
  23        23   979     428.7 
  24        24   979     467.5 
  25        25   980     479.6 
  26        26   980     510.9 
  27        27   978     469.7 
  28        28   980     469.0 
  29        29   980     532.0 
  30        30   980     477.6 
  31        31   980     481.0 
  32        32   980     498.0 
  33        33   980     495.9 
  34        34   981     532.1 
  35        35   981     496.8 
  36        36   980     488.4 
  37        37   981     493.7 
  38        38   980     562.2 
  39        39   981     527.4 
  40        40   980     487.1 
  41        41   981     479.1 
  42        42   980     492.9 
  43        43   982     513.2 
  44        44   981     500.8 
  45        45   980     510.5 
  46        46   981     516.8 
  47        47   982     549.9 
  48        48   982     538.0 
  49        49   981     542.6 
  50        50   981     515.5 
  51        51   980     577.6 
  52        52   983     524.9 
  53        53   981     546.7 
  54        54   981     547.1 
  55        55   981     544.3 
  56        56   982     563.5 
  57        57   982     545.1 
  58        58   981     525.0 
  59        59   981     579.3 
  60        60   980     561.6 
  61        61   983     523.6 
  62        62   981     532.8 
  63        63   981     567.4 
  64        64   981     582.7 
  65        65   982     565.9 
  66        66   982     551.9 
  67        67   981     549.8 
  68        68   981     588.9 
  69        69   981     582.4 
  70        70   983     562.6 
  71        71   980     552.4 
  72        72   981     556.2 
  73        73   981     613.0 
  74        74   982     595.4 
  75        75   981     574.2 
  76        76   980     615.6 
  77        77   980     587.1 
  78        78   982     596.7 
  79        79   982     534.3 
  80        80   980     563.6 
  81        81   981     594.6 
  82        82   980     584.7 
  83        83   982     572.6 
  84        84   980     587.4 
  85        85   980     608.8 
  86        86   980     605.1 
  87        87   982     613.4 
  88        88   981     540.9 
  89        89   980     570.1 
  90        90   981     605.2 
  91        91   981     594.3 
  92        92   982     560.4 
  93        93   980     612.6 
  94        94   980     630.3 
  95        95   980     620.4 
  96        96   982     554.7 
  97        97   981     592.6 
  98        98   980     600.7 
  99        99   980     607.8 
 100       100   980     576.5 
 101       101   981     608.9 
 102       102   980     619.0 
 103       103   980     615.0 
 104       104   980     610.9 
 105       105   982     560.1 
 106       106   980     600.0 
 107       107   980     628.6 
 108       108   980     609.5 
 109       109   981     594.0 
 110       110   980     570.4 
 111       111   980     636.1 
 112       112   980     635.4 
 113       113   980     591.8 
 114       114   981     601.8 
 115       115   980     624.5 
 116       116   980     618.7 
 117       117   980     617.7 
 118       118   980     586.4 
 119       119   980     592.5 
 120       120   979     634.7 
 121       121   980     610.2 
 122       122   980     588.4 
 123       123   981     561.7 
 124       124   979     591.1 
 125       125   980     631.3 
 126       126   980     593.9 
 127       127   981     571.9 
 128       128   980     597.6 
 129       129   979     612.5 
 130       130   979     613.9 
 131       131   980     588.4 
 132       132   980     603.1 
 133       133   979     611.5 
 134       134   979     587.7 
 135       135   979     605.4 
 136       136   980     587.1 
 137       137   979     599.9 
 138       138   979     599.9 
 139       139   979     594.1 
 140       140   980     571.1 
 141       141   980     590.1 
 142       142   978     630.2 
 143       143   980     648.3 
 144       144   979     588.7 
 145       145   980     584.0 
 146       146   978     642.5 
 147       147   979     629.2 
 148       148   979     638.7 
 149       149   979     603.7 
 150       150   979     603.7 
 151       210  1000     666.3 
 152       270   997     659.0 
 153       330  1000     573.0 
 154       390   996     527.4 
 155       450   996     476.2 
 156       510   996     458.8 
 157       570   994     468.5 
 158       630   998     570.1 
 159       810   983     426.9 
 160       990   980     447.6 
 161      1170   985     401.0 
 162      1350   986     413.8 
 163      1530   981     415.6 
 164      2070   980     389.5 
 165      2691   973     472.8 
 166      3405   978     380.7 
 167      4226   978     450.2 
 168      5170   976     460.7 
 169      6256   975     420.9 
 170      7505   974     402.5 
 171      8941   977     343.9 
 172     10592   975     417.4 
 173     12491   973     416.2 
 174     14675   979     247.5 
 175     17187   975     369.2 
 176     20076   974     468.5 
 177     23398   977     408.7 
 178     27218   979     383.4 
 179     31611   980     413.6 
 180     36663   980     338.4 
 181     42473   977     256.9 
 182     49155   978     435.6 
 183     56839   980     368.0 
 184     65676   977     384.2 
 185     75839   981     384.2 
   1         1   156     929.5 
   2         2   817     825.0 
   3         3   953     805.9 
   4         4   969     819.1 
   5         5   972     809.7 
   6         6   973     780.4 
   7         7   973     809.2 
   8         8   977     804.5 
   9         9   974     867.2 
  10        10   975     855.4 
  11        11   976     913.6 
  12        12   977     859.8 
  13        13   977     931.4 
  14        14   977     958.0 
  15        15   977     936.9 
  16        16   978     884.1 
  17        17   980     931.6 
  18        18   977     917.4 
  19        19   978     915.8 
  20        20   979     902.3 
  21        21   980     890.1 
  22        22   979     862.8 
  23        23   979     839.3 
  24        24   979     841.7 
  25        25   980     868.7 
  26        26   980     850.7 
  27        27   978     866.7 
  28        28   980     838.8 
  29        29   980     783.3 
  30        30   980     835.4 
  31        31   980     880.3 
  32        32   980     850.3 
  33        33   980     825.5 
  34        34   981     801.6 
  35        35   981     822.3 
  36        36   980     839.1 
  37        37   981     828.7 
  38        38   980     845.6 
  39        39   981     852.5 
  40        40   980     845.2 
  41        41   981     855.2 
  42        42   980     857.5 
  43        43   982     849.3 
  44        44   981     882.4 
  45        45   980     857.8 
  46        46   981     823.3 
  47        47   982     838.4 
  48        48   982     884.2 
  49        49   981     874.3 
  50        50   981     859.3 
  51        51   980     856.5 
  52        52   983     827.7 
  53        53   981     868.5 
  54        54   981     860.0 
  55        55   981     852.2 
  56        56   982     857.1 
  57        57   982     870.3 
  58        58   981     848.8 
  59        59   981     883.8 
  60        60   980     842.2 
  61        61   983     885.0 
  62        62   981     886.5 
  63        63   981     840.6 
  64        64   981     779.1 
  65        65   982     875.4 
  66        66   982     882.6 
  67        67   981     852.9 
  68        68   981     822.6 
  69        69   981     851.5 
  70        70   983     869.8 
  71        71   980     867.0 
  72        72   981     841.7 
  73        73   981     861.7 
  74        74   982     857.4 
  75        75   981     867.5 
  76        76   980     813.9 
  77        77   980     826.9 
  78        78   982     867.3 
  79        79   982     857.8 
  80        80   980     869.0 
  81        81   981     858.6 
  82        82   980     847.3 
  83        83   982     910.7 
  84        84   980     866.7 
  85        85   980     858.2 
  86        86   980     831.3 
  87        87   982     885.6 
  88        88   981     866.5 
  89        89   980     877.6 
  90        90   981     834.5 
  91        91   981     870.2 
  92        92   982     889.7 
  93        93   980     852.4 
  94        94   980     824.5 
  95        95   980     868.0 
  96        96   982     886.3 
  97        97   981     861.4 
  98        98   980     851.0 
  99        99   980     831.3 
 100       100   980     843.2 
 101       101   981     869.9 
 102       102   980     850.7 
 103       103   980     817.0 
 104       104   980     843.5 
 105       105   982     892.7 
 106       106   980     856.5 
 107       107   980     873.1 
 108       108   980     861.9 
 109       109   981     868.2 
 110       110   980     853.1 
 111       111   980     853.1 
 112       112   980     844.6 
 113       113   980     882.0 
 114       114   981     895.3 
 115       115   980     880.6 
 116       116   980     862.6 
 117       117   980     883.0 
 118       118   980     873.5 
 119       119   980     879.6 
 120       120   979     860.1 
 121       121   980     850.0 
 122       122   980     872.4 
 123       123   981     887.9 
 124       124   979     838.3 
 125       125   980     891.8 
 126       126   980     875.5 
 127       127   981     894.7 
 128       128   980     840.1 
 129       129   979     842.0 
 130       130   979     857.3 
 131       131   980     896.6 
 132       132   980     895.6 
 133       133   979     857.3 
 134       134   979     859.7 
 135       135   979     882.9 
 136       136   980     903.1 
 137       137   979     888.7 
 138       138   979     840.0 
 139       139   979     900.2 
 140       140   980     860.9 
 141       141   980     873.5 
 142       142   978     872.5 
 143       143   980     880.3 
 144       144   979     882.2 
 145       145   980     860.2 
 146       146   978     849.0 
 147       147   979     895.8 
 148       148   979     867.2 
 149       149   979     873.7 
 150       150   979     873.7 
 151       210  1000     801.3 
 152       270   997     832.2 
 153       330  1000     841.3 
 154       390   996     955.8 
 155       450   996     861.8 
 156       510   996     780.1 
 157       570   994     872.9 
 158       630   998     801.9 
 159       810   983     824.7 
 160       990   980     870.4 
 161      1170   985     760.1 
 162      1350   986     875.3 
 163      1530   981     856.9 
 164      2070   980     823.8 
 165      2691   973     811.6 
 166      3405   978     760.7 
 167      4226   978     776.8 
 168      5170   976     752.7 
 169      6256   975     761.0 
 170      7505   974     774.1 
 171      8941   977     705.2 
 172     10592   975     722.4 
 173     12491   973     736.9 
 174     14675   979     667.7 
 175     17187   975     660.9 
 176     20076   974     616.7 
 177     23398   977     564.7 
 178     27218   979     622.1 
 179     31611   980     474.8 
 180     36663   980     658.2 
 181     42473   977     435.0 
 182     49155   978     529.3 
 183     56839   980     475.2 
 184     65676   977     534.3 
 185     75839   981     534.3 
