PC/104 FIRe Fluorometer 2.0.0
 4/ 8/2025     40295
LED Color:           blue
Gain:               2000
Sample Delay (msec):    10
Number Samples:   3
STF (usec):      150
STRP (#samples):       35
STRI (usec):       60
MTF (ms):        0
MTF (#samples):     0
MTRP (#samples):        0
MTRI (usec):      100
PQLen:     4
Ambient Light Source Power: Off
PAR (uMol/m^2/s):900.00
Comment:
Depth(m):  -2.0
Temperature(C):  76.0
Battery(V):  14.01

         Time    EX   Fl-Yield 
DATA--------------------------
   0         0     0       0.0 
   1         1   156    -126.1 
   2         2   817     122.8 
   3         3   953     136.8 
   4         4   969     148.3 
   5         5   972     133.7 
   6         6   973     152.4 
   7         7   973     172.0 
   8         8   977     110.9 
   9         9   974     171.5 
  10        10   975     137.8 
  11        11   976     134.6 
  12        12   977     145.7 
  13        13   977     173.0 
  14        14   977     166.5 
  15        15   977     141.6 
  16        16   978     110.4 
  17        17   980     146.9 
  18        18   977     165.5 
  19        19   978     128.8 
  20        20   979     123.9 
  21        21   980     119.0 
  22        22   979     144.7 
  23        23   979     185.2 
  24        24   979     142.3 
  25        25   980     169.7 
  26        26   980     116.3 
  27        27   978     163.3 
  28        28   980     157.5 
  29        29   980     161.6 
  30        30   980     156.5 
  31        31   980     150.7 
  32        32   980     102.4 
  33        33   980     109.2 
  34        34   981     125.0 
  35        35   981     161.4 
  36        36   980     111.2 
  37        37   981     148.5 
  38        38   980     104.1 
  39        39   981     132.5 
  40        40   980     146.9 
  41        41   981     142.4 
  42        42   980     123.5 
  43        43   982     144.9 
  44        44   981     140.7 
  45        45   980     160.9 
  46        46   981     152.2 
  47        47   982     126.6 
  48        48   982     135.8 
  49        49   981     161.4 
  50        50   981     139.0 
  51        51   980     151.4 
  52        52   983     150.2 
  53        53   981     161.4 
  54        54   981     144.4 
  55        55   981     131.8 
  56        56   982     138.5 
  57        57   982     183.6 
  58        58   981     126.4 
  59        59   981     159.0 
  60        60   980     148.3 
  61        61   983     160.1 
  62        62   981     140.3 
  63        63   981     149.8 
  64        64   981     150.2 
  65        65   982     125.6 
  66        66   982     138.8 
  67        67   981     109.8 
  68        68   981     159.0 
  69        69   981     122.0 
  70        70   983     181.1 
  71        71   980     128.9 
  72        72   981     187.6 
  73        73   981     127.8 
  74        74   982     182.6 
  75        75   981     161.4 
  76        76   980     136.1 
  77        77   980     140.8 
  78        78   982     137.1 
  79        79   982     165.0 
  80        80   980     165.0 
  81        81   981     134.9 
  82        82   980     153.4 
  83        83   982     204.7 
  84        84   980     162.2 
  85        85   980     165.3 
  86        86   980     175.5 
  87        87   982     175.2 
  88        88   981     166.2 
  89        89   980     141.2 
  90        90   981     147.1 
  91        91   981     133.5 
  92        92   982     139.5 
  93        93   980     120.1 
  94        94   980     107.5 
  95        95   980     150.7 
  96        96   982     176.2 
  97        97   981     193.3 
  98        98   980     145.2 
  99        99   980     139.5 
 100       100   980     186.7 
 101       101   981     207.6 
 102       102   980     171.1 
 103       103   980     118.4 
 104       104   980     159.2 
 105       105   982     167.7 
 106       106   980     161.9 
 107       107   980     160.5 
 108       108   980     137.8 
 109       109   981     210.3 
 110       110   980     181.0 
 111       111   980     168.0 
 112       112   980     145.9 
 113       113   980     216.3 
 114       114   981     204.2 
 115       115   980     202.0 
 116       116   980     160.2 
 117       117   980     204.8 
 118       118   980     231.0 
 119       119   980     188.8 
 120       120   979     171.9 
 121       121   980     167.7 
 122       122   980     198.0 
 123       123   981     165.1 
 124       124   979     193.1 
 125       125   980     125.2 
 126       126   980     167.7 
 127       127   981     239.6 
 128       128   980     196.3 
 129       129   979     150.8 
 130       130   979     162.4 
 131       131   980     203.7 
 132       132   980     202.0 
 133       133   979     173.0 
 134       134   979     138.6 
 135       135   979     238.3 
 136       136   980     162.6 
 137       137   979     182.8 
 138       138   979     142.7 
 139       139   979     161.4 
 140       140   980     203.1 
 141       141   980     168.7 
 142       142   978     187.5 
 143       143   980     170.1 
 144       144   979     164.5 
 145       145   980     198.0 
 146       146   978     209.3 
 147       147   979     133.8 
 148       148   979     202.9 
 149       149   979     153.6 
 150       150   979     153.6 
 151       210  1000     166.7 
 152       270   997     155.1 
 153       330  1000     222.7 
 154       390   996     231.6 
 155       450   996     101.7 
 156       510   996     122.2 
 157       570   994     209.3 
 158       630   998     187.0 
 159       810   983     111.6 
 160       990   980     268.0 
 161      1170   985     252.8 
 162      1350   986     238.0 
 163      1530   981     238.9 
 164      2070   980     185.4 
 165      2691   973     255.9 
 166      3405   978     175.9 
 167      4226   978     260.4 
 168      5170   976     250.0 
 169      6256   975     290.6 
 170      7505   974     232.0 
 171      8941   977     144.7 
 172     10592   975     242.4 
 173     12491   973     258.3 
 174     14675   979     277.2 
 175     17187   975     258.8 
 176     20076   974     134.5 
 177     23398   977     289.0 
 178     27218   979     172.3 
 179     31611   980     242.2 
 180     36663   980     250.3 
 181     42473   977     184.6 
 182     49155   978     227.3 
 183     56839   980     171.1 
 184     65676   977     201.0 
 185     75839   981     201.0 
   1         1   156      98.3 
   2         2   817     195.4 
   3         3   953     174.2 
   4         4   969     161.7 
   5         5   972     184.8 
   6         6   973     165.5 
   7         7   973     184.3 
   8         8   977     203.7 
   9         9   974     233.4 
  10        10   975     217.1 
  11        11   976     232.6 
  12        12   977     277.0 
  13        13   977     333.3 
  14        14   977     261.0 
  15        15   977     306.4 
  16        16   978     333.7 
  17        17   980     283.3 
  18        18   977     256.2 
  19        19   978     268.6 
  20        20   979     259.8 
  21        21   980     271.8 
  22        22   979     234.9 
  23        23   979     192.0 
  24        24   979     256.7 
  25        25   980     239.8 
  26        26   980     248.6 
  27        27   978     234.5 
  28        28   980     181.0 
  29        29   980     185.0 
  30        30   980     248.6 
  31        31   980     214.3 
  32        32   980     214.6 
  33        33   980     163.9 
  34        34   981     200.5 
  35        35   981     159.0 
  36        36   980     163.9 
  37        37   981     181.1 
  38        38   980     198.0 
  39        39   981     233.8 
  40        40   980     150.0 
  41        41   981     239.9 
  42        42   980     178.9 
  43        43   982     210.8 
  44        44   981     152.2 
  45        45   980     196.6 
  46        46   981     175.3 
  47        47   982     180.9 
  48        48   982     192.8 
  49        49   981     173.6 
  50        50   981     210.0 
  51        51   980     157.1 
  52        52   983     211.3 
  53        53   981     152.6 
  54        54   981     206.6 
  55        55   981      83.2 
  56        56   982     192.5 
  57        57   982     173.8 
  58        58   981     221.5 
  59        59   981     170.9 
  60        60   980     176.9 
  61        61   983     161.7 
  62        62   981     172.6 
  63        63   981     147.8 
  64        64   981     161.4 
  65        65   982     202.0 
  66        66   982     152.7 
  67        67   981     183.1 
  68        68   981     164.1 
  69        69   981     185.2 
  70        70   983     150.2 
  71        71   980     155.4 
  72        72   981     165.1 
  73        73   981     180.8 
  74        74   982     117.4 
  75        75   981     152.9 
  76        76   980     163.9 
  77        77   980     152.4 
  78        78   982     173.1 
  79        79   982     124.6 
  80        80   980     146.6 
  81        81   981     128.8 
  82        82   980     171.8 
  83        83   982     180.9 
  84        84   980     119.4 
  85        85   980      96.9 
  86        86   980     153.4 
  87        87   982     136.1 
  88        88   981     139.7 
  89        89   980     170.4 
  90        90   981     116.5 
  91        91   981     151.2 
  92        92   982     151.1 
  93        93   980     156.8 
  94        94   980     191.8 
  95        95   980     184.4 
  96        96   982     199.6 
  97        97   981     168.9 
  98        98   980     180.3 
  99        99   980     203.7 
 100       100   980     191.5 
 101       101   981     179.7 
 102       102   980     158.5 
 103       103   980     178.6 
 104       104   980     200.3 
 105       105   982     205.4 
 106       106   980     188.4 
 107       107   980     160.5 
 108       108   980     233.0 
 109       109   981     171.3 
 110       110   980     152.0 
 111       111   980     167.7 
 112       112   980     182.7 
 113       113   980     223.1 
 114       114   981     163.1 
 115       115   980     172.1 
 116       116   980     185.7 
 117       117   980     213.9 
 118       118   980     167.7 
 119       119   980     207.8 
 120       120   979     238.0 
 121       121   980     190.5 
 122       122   980     213.3 
 123       123   981     190.3 
 124       124   979     226.1 
 125       125   980     222.1 
 126       126   980     232.3 
 127       127   981     167.9 
 128       128   980     183.7 
 129       129   979     247.9 
 130       130   979     274.4 
 131       131   980     199.7 
 132       132   980     193.5 
 133       133   979     207.7 
 134       134   979     234.6 
 135       135   979     214.2 
 136       136   980     209.9 
 137       137   979     214.8 
 138       138   979     199.2 
 139       139   979     215.9 
 140       140   980     212.6 
 141       141   980     265.6 
 142       142   978     233.1 
 143       143   980     228.6 
 144       144   979     175.7 
 145       145   980     223.8 
 146       146   978     224.3 
 147       147   979     275.5 
 148       148   979     214.2 
 149       149   979     282.9 
 150       150   979     282.9 
 151       210  1000      82.0 
 152       270   997     198.9 
 153       330  1000     108.0 
 154       390   996     166.0 
 155       450   996     223.9 
 156       510   996     225.2 
 157       570   994     155.3 
 158       630   998     224.1 
 159       810   983     123.1 
 160       990   980     271.1 
 161      1170   985      58.2 
 162      1350   986     230.6 
 163      1530   981     242.6 
 164      2070   980     189.5 
 165      2691   973     128.1 
 166      3405   978     203.1 
 167      4226   978     233.5 
 168      5170   976     250.0 
 169      6256   975     150.4 
 170      7505   974     171.8 
 171      8941   977     246.7 
 172     10592   975     155.2 
 173     12491   973     107.9 
 174     14675   979     196.8 
 175     17187   975     208.5 
 176     20076   974     182.4 
 177     23398   977     193.4 
 178     27218   979     238.7 
 179     31611   980     195.6 
 180     36663   980     107.5 
 181     42473   977     130.3 
 182     49155   978     273.3 
 183     56839   980     202.7 
 184     65676   977     174.7 
 185     75839   981     174.7 
