PC/104 FIRe Fluorometer 2.0.0
 4/ 8/2025     37234
LED Color:           blue
Gain:               2000
Sample Delay (msec):    10
Number Samples:   3
STF (usec):      150
STRP (#samples):       35
STRI (usec):       60
MTF (ms):        0
MTF (#samples):     0
MTRP (#samples):        0
MTRI (usec):      100
PQLen:     4
Ambient Light Source Power: Off
PAR (uMol/m^2/s):456.54
Comment:
Depth(m):  -0.8
Temperature(C):  72.4
Battery(V):  14.36

         Time    EX   Fl-Yield 
DATA--------------------------
   0         0     0       0.0 
   1         1   156     215.8 
   2         2   817     226.8 
   3         3   953     241.0 
   4         4   969     252.8 
   5         5   972     277.8 
   6         6   973     268.2 
   7         7   973     211.4 
   8         8   977     270.6 
   9         9   974     294.3 
  10        10   975     336.1 
  11        11   976     240.8 
  12        12   977     308.4 
  13        13   977     319.3 
  14        14   977     311.5 
  15        15   977     294.4 
  16        16   978     273.0 
  17        17   980     294.2 
  18        18   977     328.9 
  19        19   978     352.8 
  20        20   979     321.8 
  21        21   980     306.5 
  22        22   979     278.5 
  23        23   979     343.2 
  24        24   979     275.1 
  25        25   980     320.7 
  26        26   980     327.6 
  27        27   978     370.8 
  28        28   980     361.6 
  29        29   980     312.6 
  30        30   980     328.6 
  31        31   980     311.6 
  32        32   980     330.3 
  33        33   980     313.6 
  34        34   981     339.1 
  35        35   981     263.7 
  36        36   980     376.2 
  37        37   981     300.4 
  38        38   980     345.9 
  39        39   981     314.3 
  40        40   980     328.9 
  41        41   981     351.0 
  42        42   980     293.9 
  43        43   982     330.6 
  44        44   981     358.5 
  45        45   980     369.0 
  46        46   981     300.4 
  47        47   982     304.5 
  48        48   982     327.6 
  49        49   981     327.2 
  50        50   981     313.3 
  51        51   980     305.4 
  52        52   983     290.6 
  53        53   981     350.0 
  54        54   981     382.9 
  55        55   981     322.1 
  56        56   982     355.7 
  57        57   982     328.9 
  58        58   981     391.4 
  59        59   981     355.1 
  60        60   980     304.4 
  61        61   983     319.8 
  62        62   981     370.4 
  63        63   981     364.3 
  64        64   981     303.4 
  65        65   982     317.7 
  66        66   982     369.3 
  67        67   981     388.0 
  68        68   981     334.0 
  69        69   981     341.5 
  70        70   983     338.1 
  71        71   980     375.2 
  72        72   981     312.3 
  73        73   981     341.1 
  74        74   982     343.9 
  75        75   981     347.9 
  76        76   980     367.3 
  77        77   980     357.8 
  78        78   982     383.9 
  79        79   982     381.5 
  80        80   980     404.4 
  81        81   981     355.1 
  82        82   980     387.4 
  83        83   982     353.0 
  84        84   980     408.2 
  85        85   980     376.9 
  86        86   980     362.2 
  87        87   982     380.5 
  88        88   981     360.2 
  89        89   980     394.6 
  90        90   981     337.8 
  91        91   981     360.9 
  92        92   982     356.4 
  93        93   980     392.5 
  94        94   980     350.7 
  95        95   980     300.3 
  96        96   982     370.7 
  97        97   981     335.0 
  98        98   980     333.7 
  99        99   980     316.7 
 100       100   980     376.5 
 101       101   981     338.1 
 102       102   980     336.7 
 103       103   980     324.5 
 104       104   980     326.9 
 105       105   982     356.4 
 106       106   980     394.6 
 107       107   980     334.4 
 108       108   980     345.2 
 109       109   981     352.0 
 110       110   980     319.7 
 111       111   980     357.5 
 112       112   980     329.6 
 113       113   980     347.3 
 114       114   981     371.4 
 115       115   980     345.9 
 116       116   980     337.4 
 117       117   980     341.8 
 118       118   980     341.8 
 119       119   980     333.3 
 120       120   979     345.3 
 121       121   980     299.3 
 122       122   980     331.6 
 123       123   981     281.0 
 124       124   979     336.1 
 125       125   980     322.8 
 126       126   980     365.3 
 127       127   981     318.7 
 128       128   980     381.6 
 129       129   979     306.4 
 130       130   979     358.2 
 131       131   980     329.6 
 132       132   980     323.1 
 133       133   979     366.0 
 134       134   979     316.6 
 135       135   979     366.7 
 136       136   980     346.3 
 137       137   979     325.2 
 138       138   979     290.4 
 139       139   979     352.4 
 140       140   980     337.4 
 141       141   980     360.2 
 142       142   978     325.2 
 143       143   980     332.7 
 144       144   979     344.2 
 145       145   980     323.8 
 146       146   978     353.1 
 147       147   979     291.1 
 148       148   979     324.5 
 149       149   979     363.3 
 150       150   979     363.3 
 151       210  1000     450.7 
 152       270   997     426.6 
 153       330  1000     343.0 
 154       390   996     303.2 
 155       450   996     402.9 
 156       510   996     363.5 
 157       570   994     351.8 
 158       630   998     316.3 
 159       810   983     325.2 
 160       990   980     279.6 
 161      1170   985     324.9 
 162      1350   986     349.6 
 163      1530   981     389.7 
 164      2070   980     238.8 
 165      2691   973     258.0 
 166      3405   978     336.7 
 167      4226   978     264.1 
 168      5170   976     258.9 
 169      6256   975     281.7 
 170      7505   974     338.8 
 171      8941   977     290.7 
 172     10592   975     277.6 
 173     12491   973     272.0 
 174     14675   979     346.6 
 175     17187   975     208.9 
 176     20076   974     315.9 
 177     23398   977     277.0 
 178     27218   979     285.0 
 179     31611   980     335.7 
 180     36663   980     351.7 
 181     42473   977     223.8 
 182     49155   978     247.1 
 183     56839   980     374.8 
 184     65676   977     301.3 
 185     75839   981     301.3 
   1         1   156      74.8 
   2         2   817     268.9 
   3         3   953     214.8 
   4         4   969     247.7 
   5         5   972     237.0 
   6         6   973     289.5 
   7         7   973     223.7 
   8         8   977     285.2 
   9         9   974     321.4 
  10        10   975     289.6 
  11        11   976     259.9 
  12        12   977     317.0 
  13        13   977     363.4 
  14        14   977     400.5 
  15        15   977     365.4 
  16        16   978     317.7 
  17        17   980     354.8 
  18        18   977     339.8 
  19        19   978     323.8 
  20        20   979     311.9 
  21        21   980     277.6 
  22        22   979     343.5 
  23        23   979     302.0 
  24        24   979     282.3 
  25        25   980     283.0 
  26        26   980     301.0 
  27        27   978     279.1 
  28        28   980     267.7 
  29        29   980     251.7 
  30        30   980     235.4 
  31        31   980     262.9 
  32        32   980     280.6 
  33        33   980     234.7 
  34        34   981     218.5 
  35        35   981     224.6 
  36        36   980     304.1 
  37        37   981     285.4 
  38        38   980     273.5 
  39        39   981     259.6 
  40        40   980     267.0 
  41        41   981     275.2 
  42        42   980     240.1 
  43        43   982     264.8 
  44        44   981     307.2 
  45        45   980     333.0 
  46        46   981     274.2 
  47        47   982     281.1 
  48        48   982     287.5 
  49        49   981     319.7 
  50        50   981     260.3 
  51        51   980     227.6 
  52        52   983     239.4 
  53        53   981     278.3 
  54        54   981     292.2 
  55        55   981     224.9 
  56        56   982     283.4 
  57        57   982     256.6 
  58        58   981     306.2 
  59        59   981     255.2 
  60        60   980     235.0 
  61        61   983     231.3 
  62        62   981     275.9 
  63        63   981     275.9 
  64        64   981     232.1 
  65        65   982     255.6 
  66        66   982     305.5 
  67        67   981     288.8 
  68        68   981     276.9 
  69        69   981     229.7 
  70        70   983     293.3 
  71        71   980     309.2 
  72        72   981     276.6 
  73        73   981     294.6 
  74        74   982     231.8 
  75        75   981     226.0 
  76        76   980     306.8 
  77        77   980     251.0 
  78        78   982     252.9 
  79        79   982     323.2 
  80        80   980     278.6 
  81        81   981     249.4 
  82        82   980     231.0 
  83        83   982     267.8 
  84        84   980     306.5 
  85        85   980     234.0 
  86        86   980     289.1 
  87        87   982     254.9 
  88        88   981     309.2 
  89        89   980     317.0 
  90        90   981     229.4 
  91        91   981     249.1 
  92        92   982     265.8 
  93        93   980     322.1 
  94        94   980     286.4 
  95        95   980     287.4 
  96        96   982     299.7 
  97        97   981     325.9 
  98        98   980     278.9 
  99        99   980     250.3 
 100       100   980     300.0 
 101       101   981     350.7 
 102       102   980     308.2 
 103       103   980     304.8 
 104       104   980     295.9 
 105       105   982     298.7 
 106       106   980     342.5 
 107       107   980     328.9 
 108       108   980     304.4 
 109       109   981     271.5 
 110       110   980     339.1 
 111       111   980     304.4 
 112       112   980     270.1 
 113       113   980     342.5 
 114       114   981     332.7 
 115       115   980     303.4 
 116       116   980     282.7 
 117       117   980     292.2 
 118       118   980     337.4 
 119       119   980     389.8 
 120       120   979     291.8 
 121       121   980     273.8 
 122       122   980     275.5 
 123       123   981     370.0 
 124       124   979     321.8 
 125       125   980     282.0 
 126       126   980     254.8 
 127       127   981     332.7 
 128       128   980     276.9 
 129       129   979     285.3 
 130       130   979     293.2 
 131       131   980     313.9 
 132       132   980     362.6 
 133       133   979     293.2 
 134       134   979     271.7 
 135       135   979     256.7 
 136       136   980     332.0 
 137       137   979     340.1 
 138       138   979     258.1 
 139       139   979     294.9 
 140       140   980     322.8 
 141       141   980     377.9 
 142       142   978     386.5 
 143       143   980     323.5 
 144       144   979     290.1 
 145       145   980     318.7 
 146       146   978     368.8 
 147       147   979     283.3 
 148       148   979     352.1 
 149       149   979     259.1 
 150       150   979     259.1 
 151       210  1000     204.7 
 152       270   997     436.3 
 153       330  1000     263.3 
 154       390   996     306.9 
 155       450   996     335.3 
 156       510   996     325.0 
 157       570   994     329.3 
 158       630   998     344.7 
 159       810   983     219.7 
 160       990   980     315.3 
 161      1170   985     252.8 
 162      1350   986     410.8 
 163      1530   981     433.2 
 164      2070   980     227.2 
 165      2691   973     255.9 
 166      3405   978     223.2 
 167      4226   978     291.1 
 168      5170   976     390.0 
 169      6256   975     331.3 
 170      7505   974     281.0 
 171      8941   977     433.6 
 172     10592   975     320.7 
 173     12491   973     358.3 
 174     14675   979     354.4 
 175     17187   975     298.1 
 176     20076   974     358.3 
 177     23398   977     189.4 
 178     27218   979     325.2 
 179     31611   980     318.0 
 180     36663   980     196.3 
 181     42473   977     352.1 
 182     49155   978     332.7 
 183     56839   980     389.1 
 184     65676   977     318.7 
 185     75839   981     318.7 
