PC/104 FIRe Fluorometer 2.0.0
 4/ 8/2025     37038
LED Color:           blue
Gain:               1600
Sample Delay (msec):    10
Number Samples:   3
STF (usec):      150
STRP (#samples):       35
STRI (usec):       60
MTF (ms):        0
MTF (#samples):     0
MTRP (#samples):        0
MTRI (usec):      100
PQLen:     4
Ambient Light Source Power: Off
PAR (uMol/m^2/s):630.00
Comment:
Depth(m):  -0.5
Temperature(C):  72.5
Battery(V):  14.38

         Time    EX   Fl-Yield 
DATA--------------------------
   0         0     0       0.0 
   1         1   156     128.2 
   2         2   817     260.7 
   3         3   953     280.5 
   4         4   969     284.1 
   5         5   972     274.3 
   6         6   973     281.6 
   7         7   973     293.3 
   8         8   977     308.1 
   9         9   974     308.4 
  10        10   975     307.7 
  11        11   976     297.5 
  12        12   977     336.1 
  13        13   977     334.7 
  14        14   977     323.4 
  15        15   977     330.3 
  16        16   978     378.0 
  17        17   980     357.5 
  18        18   977     370.2 
  19        19   978     370.1 
  20        20   979     364.0 
  21        21   980     371.4 
  22        22   979     379.6 
  23        23   979     374.2 
  24        24   979     370.4 
  25        25   980     384.4 
  26        26   980     388.8 
  27        27   978     402.2 
  28        28   980     378.2 
  29        29   980     396.3 
  30        30   980     398.3 
  31        31   980     400.7 
  32        32   980     380.6 
  33        33   980     380.3 
  34        34   981     424.1 
  35        35   981     406.4 
  36        36   980     398.0 
  37        37   981     396.2 
  38        38   980     414.3 
  39        39   981     425.1 
  40        40   980     408.2 
  41        41   981     418.6 
  42        42   980     410.9 
  43        43   982     406.3 
  44        44   981     418.3 
  45        45   980     418.0 
  46        46   981     419.6 
  47        47   982     417.5 
  48        48   982     430.4 
  49        49   981     439.7 
  50        50   981     442.1 
  51        51   980     423.1 
  52        52   983     438.1 
  53        53   981     437.0 
  54        54   981     431.9 
  55        55   981     434.3 
  56        56   982     448.4 
  57        57   982     430.1 
  58        58   981     447.8 
  59        59   981     435.6 
  60        60   980     455.4 
  61        61   983     448.3 
  62        62   981     446.8 
  63        63   981     441.4 
  64        64   981     433.6 
  65        65   982     443.3 
  66        66   982     452.1 
  67        67   981     457.0 
  68        68   981     432.2 
  69        69   981     441.4 
  70        70   983     472.4 
  71        71   980     438.8 
  72        72   981     447.2 
  73        73   981     437.6 
  74        74   982     450.1 
  75        75   981     447.2 
  76        76   980     431.0 
  77        77   980     449.3 
  78        78   982     467.8 
  79        79   982     444.0 
  80        80   980     438.4 
  81        81   981     434.3 
  82        82   980     453.1 
  83        83   982     459.3 
  84        84   980     442.9 
  85        85   980     453.1 
  86        86   980     432.7 
  87        87   982     448.1 
  88        88   981     444.4 
  89        89   980     445.2 
  90        90   981     433.9 
  91        91   981     441.0 
  92        92   982     444.0 
  93        93   980     439.5 
  94        94   980     429.9 
  95        95   980     452.7 
  96        96   982     440.6 
  97        97   981     434.3 
  98        98   980     412.9 
  99        99   980     427.2 
 100       100   980     438.4 
 101       101   981     445.5 
 102       102   980     423.1 
 103       103   980     435.7 
 104       104   980     427.2 
 105       105   982     435.5 
 106       106   980     437.4 
 107       107   980     439.8 
 108       108   980     425.5 
 109       109   981     418.3 
 110       110   980     415.3 
 111       111   980     438.4 
 112       112   980     433.0 
 113       113   980     433.0 
 114       114   981     421.0 
 115       115   980     407.1 
 116       116   980     425.2 
 117       117   980     432.0 
 118       118   980     427.6 
 119       119   980     420.4 
 120       120   979     417.8 
 121       121   980     427.2 
 122       122   980     433.7 
 123       123   981     406.7 
 124       124   979     433.8 
 125       125   980     423.1 
 126       126   980     423.1 
 127       127   981     430.5 
 128       128   980     426.2 
 129       129   979     412.3 
 130       130   979     411.3 
 131       131   980     432.0 
 132       132   980     417.3 
 133       133   979     397.3 
 134       134   979     417.4 
 135       135   979     421.5 
 136       136   980     428.9 
 137       137   979     417.1 
 138       138   979     396.0 
 139       139   979     417.4 
 140       140   980     417.7 
 141       141   980     425.5 
 142       142   978     401.8 
 143       143   980     428.2 
 144       144   979     412.3 
 145       145   980     412.9 
 146       146   978     419.9 
 147       147   979     404.5 
 148       148   979     408.6 
 149       149   979     401.4 
 150       150   979     401.4 
 151       210  1000     486.3 
 152       270   997     401.2 
 153       330  1000     405.3 
 154       390   996     435.4 
 155       450   996     379.5 
 156       510   996     381.2 
 157       570   994     398.1 
 158       630   998     352.7 
 159       810   983     411.0 
 160       990   980     330.6 
 161      1170   985     374.6 
 162      1350   986     371.9 
 163      1530   981     360.9 
 164      2070   980     361.6 
 165      2691   973     327.9 
 166      3405   978     292.1 
 167      4226   978     308.8 
 168      5170   976     293.7 
 169      6256   975     309.1 
 170      7505   974     290.2 
 171      8941   977     298.9 
 172     10592   975     275.2 
 173     12491   973     306.6 
 174     14675   979     311.2 
 175     17187   975     288.9 
 176     20076   974     311.4 
 177     23398   977     292.7 
 178     27218   979     333.0 
 179     31611   980     309.2 
 180     36663   980     299.3 
 181     42473   977     286.3 
 182     49155   978     292.8 
 183     56839   980     304.4 
 184     65676   977     267.5 
 185     75839   981     267.5 
   1         1   156     361.1 
   2         2   817     490.8 
   3         3   953     489.0 
   4         4   969     512.2 
   5         5   972     487.7 
   6         6   973     490.6 
   7         7   973     485.8 
   8         8   977     529.5 
   9         9   974     499.7 
  10        10   975     530.3 
  11        11   976     534.2 
  12        12   977     560.6 
  13        13   977     550.0 
  14        14   977     534.6 
  15        15   977     535.3 
  16        16   978     531.7 
  17        17   980     559.5 
  18        18   977     552.0 
  19        19   978     538.5 
  20        20   979     537.6 
  21        21   980     539.5 
  22        22   979     517.2 
  23        23   979     515.2 
  24        24   979     534.6 
  25        25   980     522.1 
  26        26   980     540.5 
  27        27   978     535.4 
  28        28   980     522.8 
  29        29   980     532.7 
  30        30   980     542.5 
  31        31   980     524.5 
  32        32   980     523.8 
  33        33   980     516.7 
  34        34   981     521.6 
  35        35   981     532.8 
  36        36   980     518.7 
  37        37   981     518.5 
  38        38   980     552.0 
  39        39   981     536.9 
  40        40   980     530.6 
  41        41   981     528.0 
  42        42   980     526.9 
  43        43   982     541.8 
  44        44   981     521.9 
  45        45   980     551.4 
  46        46   981     530.1 
  47        47   982     550.9 
  48        48   982     536.3 
  49        49   981     535.5 
  50        50   981     544.3 
  51        51   980     558.8 
  52        52   983     549.0 
  53        53   981     529.7 
  54        54   981     539.9 
  55        55   981     546.7 
  56        56   982     555.0 
  57        57   982     565.5 
  58        58   981     555.6 
  59        59   981     555.9 
  60        60   980     537.8 
  61        61   983     547.3 
  62        62   981     546.0 
  63        63   981     554.9 
  64        64   981     557.9 
  65        65   982     546.8 
  66        66   982     556.3 
  67        67   981     559.3 
  68        68   981     545.7 
  69        69   981     560.7 
  70        70   983     547.3 
  71        71   980     548.3 
  72        72   981     543.7 
  73        73   981     557.3 
  74        74   982     544.5 
  75        75   981     537.5 
  76        76   980     529.9 
  77        77   980     550.0 
  78        78   982     579.1 
  79        79   982     531.2 
  80        80   980     554.4 
  81        81   981     553.9 
  82        82   980     556.8 
  83        83   982     540.4 
  84        84   980     567.0 
  85        85   980     560.2 
  86        86   980     545.2 
  87        87   982     551.6 
  88        88   981     551.8 
  89        89   980     535.0 
  90        90   981     531.8 
  91        91   981     542.0 
  92        92   982     549.6 
  93        93   980     551.0 
  94        94   980     535.7 
  95        95   980     544.9 
  96        96   982     534.6 
  97        97   981     540.6 
  98        98   980     538.1 
  99        99   980     543.5 
 100       100   980     575.2 
 101       101   981     529.7 
 102       102   980     540.1 
 103       103   980     546.9 
 104       104   980     541.5 
 105       105   982     551.3 
 106       106   980     535.0 
 107       107   980     550.0 
 108       108   980     532.7 
 109       109   981     550.8 
 110       110   980     525.5 
 111       111   980     546.3 
 112       112   980     537.4 
 113       113   980     547.3 
 114       114   981     523.6 
 115       115   980     550.7 
 116       116   980     546.3 
 117       117   980     553.1 
 118       118   980     553.1 
 119       119   980     555.8 
 120       120   979     516.2 
 121       121   980     543.2 
 122       122   980     550.3 
 123       123   981     547.1 
 124       124   979     546.8 
 125       125   980     518.0 
 126       126   980     552.0 
 127       127   981     538.9 
 128       128   980     539.1 
 129       129   979     527.7 
 130       130   979     544.1 
 131       131   980     531.3 
 132       132   980     548.6 
 133       133   979     529.1 
 134       134   979     531.5 
 135       135   979     542.0 
 136       136   980     526.9 
 137       137   979     524.0 
 138       138   979     541.0 
 139       139   979     550.9 
 140       140   980     524.8 
 141       141   980     536.4 
 142       142   978     542.6 
 143       143   980     536.4 
 144       144   979     541.4 
 145       145   980     517.0 
 146       146   978     533.7 
 147       147   979     532.9 
 148       148   979     535.9 
 149       149   979     542.0 
 150       150   979     542.0 
 151       210  1000     542.3 
 152       270   997     540.0 
 153       330  1000     553.3 
 154       390   996     543.5 
 155       450   996     536.1 
 156       510   996     561.6 
 157       570   994     564.1 
 158       630   998     550.4 
 159       810   983     569.3 
 160       990   980     521.4 
 161      1170   985     568.5 
 162      1350   986     560.9 
 163      1530   981     560.7 
 164      2070   980     509.9 
 165      2691   973     511.1 
 166      3405   978     474.4 
 167      4226   978     506.8 
 168      5170   976     480.2 
 169      6256   975     491.3 
 170      7505   974     493.5 
 171      8941   977     434.7 
 172     10592   975     422.6 
 173     12491   973     420.0 
 174     14675   979     427.0 
 175     17187   975     439.3 
 176     20076   974     428.5 
 177     23398   977     383.1 
 178     27218   979     407.9 
 179     31611   980     384.7 
 180     36663   980     412.9 
 181     42473   977     343.9 
 182     49155   978     340.1 
 183     56839   980     357.5 
 184     65676   977     355.5 
 185     75839   981     355.5 
