PC/104 FIRe Fluorometer 2.0.0
 4/ 8/2025     27772
LED Color:           blue
Gain:               1900
Sample Delay (msec):    10
Number Samples:   3
STF (usec):      150
STRP (#samples):       35
STRI (usec):       60
MTF (ms):        0
MTF (#samples):     0
MTRP (#samples):        0
MTRI (usec):      100
PQLen:     4
Ambient Light Source Power: Off
PAR (uMol/m^2/s):900.00
Comment:
Depth(m):   4.2
Temperature(C):  45.6
Battery(V):  16.24

         Time    EX   Fl-Yield 
DATA--------------------------
   0         0     0       0.0 
   1         1   156      -6.4 
   2         2   817     112.6 
   3         3   953     114.4 
   4         4   969     107.0 
   5         5   972     141.6 
   6         6   973     114.8 
   7         7   973      98.3 
   8         8   977     114.6 
   9         9   974     142.0 
  10        10   975     176.8 
  11        11   976     138.7 
  12        12   977     165.8 
  13        13   977     146.0 
  14        14   977     148.4 
  15        15   977     130.0 
  16        16   978     180.0 
  17        17   980     100.0 
  18        18   977     177.4 
  19        19   978     139.1 
  20        20   979     173.6 
  21        21   980     161.9 
  22        22   979     127.0 
  23        23   979     142.3 
  24        24   979     129.4 
  25        25   980     155.8 
  26        26   980     122.1 
  27        27   978     108.4 
  28        28   980     112.2 
  29        29   980     132.7 
  30        30   980     124.1 
  31        31   980     142.9 
  32        32   980     171.8 
  33        33   980     146.6 
  34        34   981     133.2 
  35        35   981     146.1 
  36        36   980     156.1 
  37        37   981      96.8 
  38        38   980     133.0 
  39        39   981     128.1 
  40        40   980     156.8 
  41        41   981     127.4 
  42        42   980     105.1 
  43        43   982     111.0 
  44        44   981     134.6 
  45        45   980     134.4 
  46        46   981     145.1 
  47        47   982     119.8 
  48        48   982     117.4 
  49        49   981     187.2 
  50        50   981     151.5 
  51        51   980     110.9 
  52        52   983     139.7 
  53        53   981     162.8 
  54        54   981     115.9 
  55        55   981     111.8 
  56        56   982     136.5 
  57        57   982     144.3 
  58        58   981     127.8 
  59        59   981     102.6 
  60        60   980     137.4 
  61        61   983     139.4 
  62        62   981     168.5 
  63        63   981     123.7 
  64        64   981     128.8 
  65        65   982     106.6 
  66        66   982     140.9 
  67        67   981     184.2 
  68        68   981     154.3 
  69        69   981     128.4 
  70        70   983      99.7 
  71        71   980     146.9 
  72        72   981     169.6 
  73        73   981     176.0 
  74        74   982     123.2 
  75        75   981     184.2 
  76        76   980     170.7 
  77        77   980     182.3 
  78        78   982     174.5 
  79        79   982     201.3 
  80        80   980     182.7 
  81        81   981     139.7 
  82        82   980     154.4 
  83        83   982     153.8 
  84        84   980     176.5 
  85        85   980     189.1 
  86        86   980     148.0 
  87        87   982     167.0 
  88        88   981     176.0 
  89        89   980     158.8 
  90        90   981     185.2 
  91        91   981     207.6 
  92        92   982     152.4 
  93        93   980     226.5 
  94        94   980     132.7 
  95        95   980     151.4 
  96        96   982     210.8 
  97        97   981     216.1 
  98        98   980     159.5 
  99        99   980     171.4 
 100       100   980     143.5 
 101       101   981     191.3 
 102       102   980     161.6 
 103       103   980     142.9 
 104       104   980     108.2 
 105       105   982     150.4 
 106       106   980     167.0 
 107       107   980     145.9 
 108       108   980     140.1 
 109       109   981     138.0 
 110       110   980     166.3 
 111       111   980     144.2 
 112       112   980     144.2 
 113       113   980     155.1 
 114       114   981     218.1 
 115       115   980     152.0 
 116       116   980     170.1 
 117       117   980     173.1 
 118       118   980     173.8 
 119       119   980     169.7 
 120       120   979     173.6 
 121       121   980     173.1 
 122       122   980     143.2 
 123       123   981     171.6 
 124       124   979     157.6 
 125       125   980     188.8 
 126       126   980     156.5 
 127       127   981     153.6 
 128       128   980     147.6 
 129       129   979     136.9 
 130       130   979     202.6 
 131       131   980     135.0 
 132       132   980     181.3 
 133       133   979     154.6 
 134       134   979     150.8 
 135       135   979     175.3 
 136       136   980     185.0 
 137       137   979     112.0 
 138       138   979     154.2 
 139       139   979     126.0 
 140       140   980     163.9 
 141       141   980     202.4 
 142       142   978     180.3 
 143       143   980     182.0 
 144       144   979     212.1 
 145       145   980     153.4 
 146       146   978     128.8 
 147       147   979     166.2 
 148       148   979     185.9 
 149       149   979     141.6 
 150       150   979     141.6 
 151       210  1000     181.3 
 152       270   997     199.3 
 153       330  1000     181.3 
 154       390   996     125.8 
 155       450   996     213.9 
 156       510   996     231.9 
 157       570   994     171.7 
 158       630   998     180.4 
 159       810   983     170.9 
 160       990   980      95.9 
 161      1170   985     152.3 
 162      1350   986     127.1 
 163      1530   981      40.8 
 164      2070   980     184.7 
 165      2691   973     128.5 
 166      3405   978      94.8 
 167      4226   978     250.5 
 168      5170   976      92.9 
 169      6256   975     201.7 
 170      7505   974     147.5 
 171      8941   977     182.5 
 172     10592   975     155.2 
 173     12491   973     114.4 
 174     14675   979     103.8 
 175     17187   975      61.9 
 176     20076   974     131.8 
 177     23398   977      42.6 
 178     27218   979     109.6 
 179     31611   980      49.0 
 180     36663   980      40.8 
 181     42473   977      34.1 
 182     49155   978     204.5 
 183     56839   980     282.7 
 184     65676   977     134.8 
 185     75839   981     134.8 
   1         1   156     224.4 
   2         2   817     209.3 
   3         3   953     131.5 
   4         4   969     194.7 
   5         5   972     192.7 
   6         6   973     194.9 
   7         7   973     155.2 
   8         8   977     232.7 
   9         9   974     269.0 
  10        10   975     284.1 
  11        11   976     332.7 
  12        12   977     297.5 
  13        13   977     323.4 
  14        14   977     368.5 
  15        15   977     387.9 
  16        16   978     313.6 
  17        17   980     395.9 
  18        18   977     358.2 
  19        19   978     345.3 
  20        20   979     258.1 
  21        21   980     300.0 
  22        22   979     269.3 
  23        23   979     279.5 
  24        24   979     255.4 
  25        25   980     236.7 
  26        26   980     258.2 
  27        27   978     250.5 
  28        28   980     234.0 
  29        29   980     214.3 
  30        30   980     218.7 
  31        31   980     203.7 
  32        32   980     207.5 
  33        33   980     239.8 
  34        34   981     208.3 
  35        35   981     197.8 
  36        36   980     263.3 
  37        37   981     187.2 
  38        38   980     226.2 
  39        39   981     224.9 
  40        40   980     231.6 
  41        41   981     249.1 
  42        42   980     190.1 
  43        43   982     220.0 
  44        44   981     201.2 
  45        45   980     224.5 
  46        46   981     177.0 
  47        47   982     192.5 
  48        48   982     162.6 
  49        49   981     194.7 
  50        50   981     221.9 
  51        51   980     179.9 
  52        52   983     227.5 
  53        53   981     206.9 
  54        54   981     222.9 
  55        55   981     191.6 
  56        56   982     218.6 
  57        57   982     231.8 
  58        58   981     213.0 
  59        59   981     190.6 
  60        60   980     234.0 
  61        61   983     215.3 
  62        62   981     225.3 
  63        63   981     190.6 
  64        64   981     179.7 
  65        65   982     155.8 
  66        66   982     158.9 
  67        67   981     173.0 
  68        68   981     194.0 
  69        69   981     219.2 
  70        70   983     189.2 
  71        71   980     161.6 
  72        72   981     217.1 
  73        73   981     179.1 
  74        74   982     161.6 
  75        75   981     231.7 
  76        76   980     168.4 
  77        77   980     167.0 
  78        78   982     165.3 
  79        79   982     180.6 
  80        80   980     217.7 
  81        81   981     164.5 
  82        82   980     190.1 
  83        83   982     167.3 
  84        84   980     168.7 
  85        85   980     175.9 
  86        86   980     207.1 
  87        87   982     159.2 
  88        88   981     210.0 
  89        89   980     190.8 
  90        90   981     135.6 
  91        91   981     156.3 
  92        92   982     225.4 
  93        93   980     201.0 
  94        94   980     131.6 
  95        95   980     180.6 
  96        96   982     212.2 
  97        97   981     228.7 
  98        98   980     181.3 
  99        99   980     202.0 
 100       100   980     186.7 
 101       101   981     214.4 
 102       102   980     169.0 
 103       103   980     163.9 
 104       104   980     204.8 
 105       105   982     223.0 
 106       106   980     208.8 
 107       107   980     187.4 
 108       108   980     219.0 
 109       109   981     173.0 
 110       110   980     188.8 
 111       111   980     216.7 
 112       112   980     171.1 
 113       113   980     206.5 
 114       114   981     234.5 
 115       115   980     221.8 
 116       116   980     174.1 
 117       117   980     227.9 
 118       118   980     229.3 
 119       119   980     214.3 
 120       120   979     241.1 
 121       121   980     230.6 
 122       122   980     221.1 
 123       123   981     284.1 
 124       124   979     246.9 
 125       125   980     187.4 
 126       126   980     202.0 
 127       127   981     242.3 
 128       128   980     220.1 
 129       129   979     194.8 
 130       130   979     174.0 
 131       131   980     205.4 
 132       132   980     243.2 
 133       133   979     205.0 
 134       134   979     206.0 
 135       135   979     208.4 
 136       136   980     240.5 
 137       137   979     204.6 
 138       138   979     234.3 
 139       139   979     231.2 
 140       140   980     238.8 
 141       141   980     223.5 
 142       142   978     208.6 
 143       143   980     245.2 
 144       144   979     208.0 
 145       145   980     288.1 
 146       146   978     257.3 
 147       147   979     216.9 
 148       148   979     294.5 
 149       149   979     238.7 
 150       150   979     238.7 
 151       210  1000      19.0 
 152       270   997     235.7 
 153       330  1000     201.7 
 154       390   996     104.1 
 155       450   996     177.0 
 156       510   996     326.6 
 157       570   994     129.8 
 158       630   998     250.5 
 159       810   983      96.6 
 160       990   980     227.6 
 161      1170   985     175.6 
 162      1350   986     247.8 
 163      1530   981     268.8 
 164      2070   980     124.8 
 165      2691   973     150.1 
 166      3405   978     113.8 
 167      4226   978     211.3 
 168      5170   976     204.6 
 169      6256   975     189.7 
 170      7505   974     193.0 
 171      8941   977     194.8 
 172     10592   975     233.8 
 173     12491   973     161.4 
 174     14675   979     157.3 
 175     17187   975      88.9 
 176     20076   974     257.4 
 177     23398   977     136.1 
 178     27218   979     236.3 
 179     31611   980     192.9 
 180     36663   980     103.4 
 181     42473   977     140.6 
 182     49155   978     167.3 
 183     56839   980     219.0 
 184     65676   977     108.5 
 185     75839   981     108.5 
