PC/104 FIRe Fluorometer 2.0.0
 4/ 8/2025     29515
LED Color:           blue
Gain:               1800
Sample Delay (msec):    10
Number Samples:   3
STF (usec):      150
STRP (#samples):       35
STRI (usec):       60
MTF (ms):        0
MTF (#samples):     0
MTRP (#samples):        0
MTRI (usec):      100
PQLen:     4
Ambient Light Source Power: Off
PAR (uMol/m^2/s):662.82
Comment:
Depth(m):   2.8
Temperature(C):  52.7
Battery(V):  15.98

         Time    EX   Fl-Yield 
DATA--------------------------
   0         0     0       0.0 
   1         1   156     335.5 
   2         2   817     254.2 
   3         3   953     249.4 
   4         4   969     271.8 
   5         5   972     243.8 
   6         6   973     285.7 
   7         7   973     286.4 
   8         8   977     293.8 
   9         9   974     279.9 
  10        10   975     307.0 
  11        11   976     282.1 
  12        12   977     278.4 
  13        13   977     310.1 
  14        14   977     304.3 
  15        15   977     339.5 
  16        16   978     326.5 
  17        17   980     293.9 
  18        18   977     309.1 
  19        19   978     337.1 
  20        20   979     327.2 
  21        21   980     317.7 
  22        22   979     339.1 
  23        23   979     305.1 
  24        24   979     357.2 
  25        25   980     335.7 
  26        26   980     341.8 
  27        27   978     340.1 
  28        28   980     317.7 
  29        29   980     350.3 
  30        30   980     347.6 
  31        31   980     360.2 
  32        32   980     369.4 
  33        33   980     361.6 
  34        34   981     362.2 
  35        35   981     370.7 
  36        36   980     357.1 
  37        37   981     388.7 
  38        38   980     369.4 
  39        39   981     354.4 
  40        40   980     377.9 
  41        41   981     375.5 
  42        42   980     420.1 
  43        43   982     381.2 
  44        44   981     353.4 
  45        45   980     368.4 
  46        46   981     383.3 
  47        47   982     380.9 
  48        48   982     368.6 
  49        49   981     364.3 
  50        50   981     359.5 
  51        51   980     382.3 
  52        52   983     348.3 
  53        53   981     350.3 
  54        54   981     363.2 
  55        55   981     401.3 
  56        56   982     373.4 
  57        57   982     373.0 
  58        58   981     374.1 
  59        59   981     408.4 
  60        60   980     408.8 
  61        61   983     379.8 
  62        62   981     383.3 
  63        63   981     359.5 
  64        64   981     411.5 
  65        65   982     384.6 
  66        66   982     375.8 
  67        67   981     375.1 
  68        68   981     369.4 
  69        69   981     376.8 
  70        70   983     390.3 
  71        71   980     392.2 
  72        72   981     410.1 
  73        73   981     401.0 
  74        74   982     385.3 
  75        75   981     382.9 
  76        76   980     392.9 
  77        77   980     416.7 
  78        78   982     433.5 
  79        79   982     403.3 
  80        80   980     382.7 
  81        81   981     380.9 
  82        82   980     424.1 
  83        83   982     438.9 
  84        84   980     405.1 
  85        85   980     384.0 
  86        86   980     412.6 
  87        87   982     381.5 
  88        88   981     393.5 
  89        89   980     400.7 
  90        90   981     416.9 
  91        91   981     412.8 
  92        92   982     404.3 
  93        93   980     385.0 
  94        94   980     365.3 
  95        95   980     417.0 
  96        96   982     389.3 
  97        97   981     372.7 
  98        98   980     359.9 
  99        99   980     382.3 
 100       100   980     385.4 
 101       101   981     402.0 
 102       102   980     372.4 
 103       103   980     365.3 
 104       104   980     394.2 
 105       105   982     391.7 
 106       106   980     381.6 
 107       107   980     369.4 
 108       108   980     406.8 
 109       109   981     423.0 
 110       110   980     414.6 
 111       111   980     392.5 
 112       112   980     405.8 
 113       113   980     448.3 
 114       114   981     419.6 
 115       115   980     412.9 
 116       116   980     355.1 
 117       117   980     424.8 
 118       118   980     393.5 
 119       119   980     419.4 
 120       120   979     405.2 
 121       121   980     404.8 
 122       122   980     448.3 
 123       123   981     417.6 
 124       124   979     408.9 
 125       125   980     404.4 
 126       126   980     392.9 
 127       127   981     424.7 
 128       128   980     417.0 
 129       129   979     387.5 
 130       130   979     391.6 
 131       131   980     431.3 
 132       132   980     426.2 
 133       133   979     403.1 
 134       134   979     360.2 
 135       135   979     402.5 
 136       136   980     422.1 
 137       137   979     387.1 
 138       138   979     387.1 
 139       139   979     378.3 
 140       140   980     424.5 
 141       141   980     407.5 
 142       142   978     396.7 
 143       143   980     400.7 
 144       144   979     426.6 
 145       145   980     421.1 
 146       146   978     408.3 
 147       147   979     425.3 
 148       148   979     408.9 
 149       149   979     398.7 
 150       150   979     398.7 
 151       210  1000     411.7 
 152       270   997     400.9 
 153       330  1000     429.3 
 154       390   996     360.8 
 155       450   996     463.9 
 156       510   996     372.2 
 157       570   994     343.7 
 158       630   998     349.7 
 159       810   983     295.4 
 160       990   980     428.2 
 161      1170   985     342.1 
 162      1350   986     315.1 
 163      1530   981     369.4 
 164      2070   980     339.1 
 165      2691   973     256.3 
 166      3405   978     305.7 
 167      4226   978     243.4 
 168      5170   976     291.7 
 169      6256   975     313.5 
 170      7505   974     303.2 
 171      8941   977     321.1 
 172     10592   975     300.5 
 173     12491   973     254.9 
 174     14675   979     256.7 
 175     17187   975     297.1 
 176     20076   974     213.9 
 177     23398   977     282.5 
 178     27218   979     340.1 
 179     31611   980     257.5 
 180     36663   980     293.2 
 181     42473   977     335.4 
 182     49155   978     302.0 
 183     56839   980     279.9 
 184     65676   977     175.4 
 185     75839   981     175.4 
   1         1   156     542.7 
   2         2   817     486.3 
   3         3   953     457.2 
   4         4   969     489.2 
   5         5   972     465.4 
   6         6   973     485.1 
   7         7   973     475.5 
   8         8   977     509.7 
   9         9   974     533.9 
  10        10   975     546.0 
  11        11   976     535.2 
  12        12   977     518.3 
  13        13   977     551.0 
  14        14   977     596.0 
  15        15   977     569.4 
  16        16   978     537.8 
  17        17   980     501.0 
  18        18   977     572.8 
  19        19   978     563.7 
  20        20   979     533.2 
  21        21   980     484.4 
  22        22   979     488.6 
  23        23   979     538.0 
  24        24   979     501.9 
  25        25   980     511.9 
  26        26   980     495.2 
  27        27   978     563.7 
  28        28   980     537.4 
  29        29   980     492.2 
  30        30   980     511.9 
  31        31   980     528.6 
  32        32   980     523.5 
  33        33   980     504.4 
  34        34   981     498.8 
  35        35   981     496.1 
  36        36   980     522.4 
  37        37   981     533.1 
  38        38   980     505.1 
  39        39   981     482.2 
  40        40   980     525.9 
  41        41   981     557.6 
  42        42   980     529.6 
  43        43   982     504.4 
  44        44   981     506.3 
  45        45   980     550.7 
  46        46   981     517.8 
  47        47   982     523.8 
  48        48   982     503.7 
  49        49   981     528.7 
  50        50   981     575.9 
  51        51   980     515.3 
  52        52   983     510.7 
  53        53   981     525.7 
  54        54   981     559.0 
  55        55   981     553.9 
  56        56   982     542.8 
  57        57   982     502.4 
  58        58   981     561.7 
  59        59   981     562.0 
  60        60   980     544.9 
  61        61   983     522.9 
  62        62   981     562.4 
  63        63   981     550.5 
  64        64   981     550.5 
  65        65   982     543.4 
  66        66   982     541.1 
  67        67   981     560.7 
  68        68   981     568.1 
  69        69   981     549.8 
  70        70   983     520.2 
  71        71   980     525.9 
  72        72   981     573.9 
  73        73   981     553.2 
  74        74   982     543.8 
  75        75   981     550.1 
  76        76   980     544.9 
  77        77   980     553.1 
  78        78   982     519.3 
  79        79   982     518.0 
  80        80   980     527.2 
  81        81   981     526.7 
  82        82   980     517.0 
  83        83   982     522.1 
  84        84   980     537.4 
  85        85   980     535.4 
  86        86   980     554.1 
  87        87   982     513.9 
  88        88   981     544.3 
  89        89   980     551.4 
  90        90   981     587.2 
  91        91   981     564.4 
  92        92   982     528.9 
  93        93   980     501.7 
  94        94   980     539.8 
  95        95   980     580.6 
  96        96   982     538.4 
  97        97   981     513.4 
  98        98   980     543.9 
  99        99   980     601.4 
 100       100   980     570.7 
 101       101   981     568.5 
 102       102   980     530.6 
 103       103   980     612.2 
 104       104   980     548.6 
 105       105   982     549.2 
 106       106   980     518.7 
 107       107   980     557.5 
 108       108   980     571.8 
 109       109   981     520.6 
 110       110   980     504.4 
 111       111   980     531.0 
 112       112   980     545.6 
 113       113   980     545.6 
 114       114   981     518.9 
 115       115   980     496.3 
 116       116   980     546.3 
 117       117   980     572.4 
 118       118   980     546.3 
 119       119   980     529.6 
 120       120   979     529.8 
 121       121   980     563.3 
 122       122   980     545.9 
 123       123   981     526.3 
 124       124   979     542.0 
 125       125   980     545.2 
 126       126   980     578.9 
 127       127   981     519.2 
 128       128   980     494.2 
 129       129   979     520.6 
 130       130   979     561.1 
 131       131   980     554.8 
 132       132   980     527.2 
 133       133   979     510.0 
 134       134   979     544.1 
 135       135   979     554.3 
 136       136   980     555.4 
 137       137   979     504.9 
 138       138   979     498.1 
 139       139   979     546.1 
 140       140   980     509.9 
 141       141   980     521.8 
 142       142   978     521.5 
 143       143   980     533.3 
 144       144   979     567.2 
 145       145   980     508.2 
 146       146   978     497.3 
 147       147   979     509.7 
 148       148   979     559.4 
 149       149   979     548.9 
 150       150   979     548.9 
 151       210  1000     557.7 
 152       270   997     592.4 
 153       330  1000     535.3 
 154       390   996     476.9 
 155       450   996     592.4 
 156       510   996     449.8 
 157       570   994     636.2 
 158       630   998     471.6 
 159       810   983     680.2 
 160       990   980     466.3 
 161      1170   985     489.3 
 162      1350   986     648.4 
 163      1530   981     465.9 
 164      2070   980     491.5 
 165      2691   973     575.9 
 166      3405   978     525.6 
 167      4226   978     504.1 
 168      5170   976     567.6 
 169      6256   975     422.2 
 170      7505   974     504.8 
 171      8941   977     607.0 
 172     10592   975     420.2 
 173     12491   973     388.5 
 174     14675   979     477.0 
 175     17187   975     414.0 
 176     20076   974     337.8 
 177     23398   977     380.1 
 178     27218   979     369.1 
 179     31611   980     291.2 
 180     36663   980     286.4 
 181     42473   977     365.4 
 182     49155   978     387.2 
 183     56839   980     368.0 
 184     65676   977     288.3 
 185     75839   981     288.3 
