PC/104 FIRe Fluorometer 2.0.0
 4/ 8/2025     39805
LED Color:           blue
Gain:               1900
Sample Delay (msec):    10
Number Samples:   3
STF (usec):      150
STRP (#samples):       35
STRI (usec):       60
MTF (ms):        0
MTF (#samples):     0
MTRP (#samples):        0
MTRI (usec):      100
PQLen:     4
Ambient Light Source Power: Off
PAR (uMol/m^2/s):712.72
Comment:
Depth(m):  -1.9
Temperature(C):  75.1
Battery(V):  14.08

         Time    EX   Fl-Yield 
DATA--------------------------
   0         0     0       0.0 
   1         1   156     297.0 
   2         2   817     348.4 
   3         3   953     396.6 
   4         4   969     420.4 
   5         5   972     413.9 
   6         6   973     410.1 
   7         7   973     402.9 
   8         8   977     422.0 
   9         9   974     447.0 
  10        10   975     425.0 
  11        11   976     412.2 
  12        12   977     446.9 
  13        13   977     484.8 
  14        14   977     452.4 
  15        15   977     466.1 
  16        16   978     491.8 
  17        17   980     530.6 
  18        18   977     503.9 
  19        19   978     496.9 
  20        20   979     496.8 
  21        21   980     512.6 
  22        22   979     534.2 
  23        23   979     539.0 
  24        24   979     481.1 
  25        25   980     536.7 
  26        26   980     539.1 
  27        27   978     538.9 
  28        28   980     487.4 
  29        29   980     570.7 
  30        30   980     555.8 
  31        31   980     554.8 
  32        32   980     531.0 
  33        33   980     560.9 
  34        34   981     595.3 
  35        35   981     597.0 
  36        36   980     553.7 
  37        37   981     558.6 
  38        38   980     568.7 
  39        39   981     618.1 
  40        40   980     570.1 
  41        41   981     583.8 
  42        42   980     595.6 
  43        43   982     606.9 
  44        44   981     579.0 
  45        45   980     608.8 
  46        46   981     606.9 
  47        47   982     586.9 
  48        48   982     601.8 
  49        49   981     579.0 
  50        50   981     609.6 
  51        51   980     599.0 
  52        52   983     627.7 
  53        53   981     603.8 
  54        54   981     598.7 
  55        55   981     575.9 
  56        56   982     616.4 
  57        57   982     602.2 
  58        58   981     622.8 
  59        59   981     594.6 
  60        60   980     660.5 
  61        61   983     633.1 
  62        62   981     635.7 
  63        63   981     621.5 
  64        64   981     635.7 
  65        65   982     643.2 
  66        66   982     614.7 
  67        67   981     559.0 
  68        68   981     619.1 
  69        69   981     627.6 
  70        70   983     633.8 
  71        71   980     609.5 
  72        72   981     629.3 
  73        73   981     622.8 
  74        74   982     646.0 
  75        75   981     629.3 
  76        76   980     619.4 
  77        77   980     645.2 
  78        78   982     629.7 
  79        79   982     569.2 
  80        80   980     582.0 
  81        81   981     607.9 
  82        82   980     610.5 
  83        83   982     609.6 
  84        84   980     605.4 
  85        85   980     608.5 
  86        86   980     634.0 
  87        87   982     632.0 
  88        88   981     660.2 
  89        89   980     617.3 
  90        90   981     599.7 
  91        91   981     645.6 
  92        92   982     627.3 
  93        93   980     616.7 
  94        94   980     602.0 
  95        95   980     599.3 
  96        96   982     605.9 
  97        97   981     623.5 
  98        98   980     586.7 
  99        99   980     630.6 
 100       100   980     622.8 
 101       101   981     620.5 
 102       102   980     617.3 
 103       103   980     616.0 
 104       104   980     637.8 
 105       105   982     588.6 
 106       106   980     554.4 
 107       107   980     595.6 
 108       108   980     609.9 
 109       109   981     609.9 
 110       110   980     622.8 
 111       111   980     599.3 
 112       112   980     566.7 
 113       113   980     587.1 
 114       114   981     596.0 
 115       115   980     599.0 
 116       116   980     640.5 
 117       117   980     598.6 
 118       118   980     622.4 
 119       119   980     579.6 
 120       120   979     569.6 
 121       121   980     618.7 
 122       122   980     660.5 
 123       123   981     594.0 
 124       124   979     601.3 
 125       125   980     621.1 
 126       126   980     620.1 
 127       127   981     623.2 
 128       128   980     609.2 
 129       129   979     588.4 
 130       130   979     641.8 
 131       131   980     666.3 
 132       132   980     600.7 
 133       133   979     609.8 
 134       134   979     620.0 
 135       135   979     629.6 
 136       136   980     626.9 
 137       137   979     599.3 
 138       138   979     650.7 
 139       139   979     638.7 
 140       140   980     635.0 
 141       141   980     570.7 
 142       142   978     584.9 
 143       143   980     622.1 
 144       144   979     609.5 
 145       145   980     598.3 
 146       146   978     612.1 
 147       147   979     633.6 
 148       148   979     600.6 
 149       149   979     666.0 
 150       150   979     666.0 
 151       210  1000     620.3 
 152       270   997     566.0 
 153       330  1000     527.0 
 154       390   996     600.1 
 155       450   996     565.6 
 156       510   996     472.9 
 157       570   994     521.1 
 158       630   998     594.5 
 159       810   983     501.9 
 160       990   980     529.3 
 161      1170   985     514.7 
 162      1350   986     410.1 
 163      1530   981     535.2 
 164      2070   980     550.0 
 165      2691   973     486.8 
 166      3405   978     443.4 
 167      4226   978     472.7 
 168      5170   976     397.5 
 169      6256   975     366.5 
 170      7505   974     436.0 
 171      8941   977     425.1 
 172     10592   975     415.0 
 173     12491   973     487.8 
 174     14675   979     413.0 
 175     17187   975     435.2 
 176     20076   974     413.4 
 177     23398   977     470.1 
 178     27218   979     436.2 
 179     31611   980     460.5 
 180     36663   980     452.7 
 181     42473   977     427.5 
 182     49155   978     390.6 
 183     56839   980     440.5 
 184     65676   977     451.7 
 185     75839   981     451.7 
   1         1   156     478.6 
   2         2   817     669.5 
   3         3   953     692.9 
   4         4   969     689.4 
   5         5   972     674.6 
   6         6   973     698.9 
   7         7   973     695.8 
   8         8   977     719.9 
   9         9   974     725.2 
  10        10   975     748.7 
  11        11   976     728.1 
  12        12   977     793.2 
  13        13   977     774.1 
  14        14   977     786.4 
  15        15   977     794.6 
  16        16   978     768.6 
  17        17   980     805.1 
  18        18   977     789.5 
  19        19   978     780.2 
  20        20   979     779.7 
  21        21   980     733.3 
  22        22   979     737.5 
  23        23   979     733.1 
  24        24   979     777.3 
  25        25   980     754.1 
  26        26   980     729.6 
  27        27   978     695.3 
  28        28   980     742.9 
  29        29   980     717.3 
  30        30   980     706.5 
  31        31   980     737.4 
  32        32   980     718.0 
  33        33   980     734.7 
  34        34   981     757.1 
  35        35   981     707.1 
  36        36   980     705.1 
  37        37   981     723.8 
  38        38   980     719.7 
  39        39   981     725.1 
  40        40   980     717.3 
  41        41   981     707.8 
  42        42   980     736.7 
  43        43   982     704.0 
  44        44   981     728.8 
  45        45   980     702.4 
  46        46   981     687.4 
  47        47   982     711.8 
  48        48   982     728.8 
  49        49   981     664.6 
  50        50   981     738.7 
  51        51   980     743.5 
  52        52   983     712.1 
  53        53   981     704.4 
  54        54   981     729.9 
  55        55   981     717.6 
  56        56   982     704.3 
  57        57   982     688.1 
  58        58   981     715.6 
  59        59   981     698.6 
  60        60   980     724.5 
  61        61   983     730.4 
  62        62   981     708.1 
  63        63   981     725.1 
  64        64   981     720.7 
  65        65   982     707.4 
  66        66   982     723.7 
  67        67   981     748.2 
  68        68   981     688.8 
  69        69   981     745.5 
  70        70   983     695.5 
  71        71   980     771.1 
  72        72   981     700.3 
  73        73   981     731.2 
  74        74   982     704.0 
  75        75   981     684.3 
  76        76   980     703.4 
  77        77   980     737.4 
  78        78   982     714.2 
  79        79   982     684.7 
  80        80   980     707.1 
  81        81   981     676.2 
  82        82   980     734.7 
  83        83   982     691.8 
  84        84   980     700.0 
  85        85   980     724.8 
  86        86   980     702.4 
  87        87   982     699.9 
  88        88   981     648.7 
  89        89   980     702.7 
  90        90   981     701.7 
  91        91   981     701.7 
  92        92   982     704.3 
  93        93   980     751.4 
  94        94   980     684.0 
  95        95   980     700.0 
  96        96   982     710.8 
  97        97   981     738.4 
  98        98   980     739.8 
  99        99   980     698.0 
 100       100   980     729.3 
 101       101   981     718.7 
 102       102   980     761.6 
 103       103   980     717.0 
 104       104   980     725.5 
 105       105   982     718.6 
 106       106   980     741.5 
 107       107   980     734.4 
 108       108   980     720.4 
 109       109   981     734.6 
 110       110   980     755.8 
 111       111   980     740.8 
 112       112   980     765.0 
 113       113   980     750.3 
 114       114   981     756.7 
 115       115   980     746.9 
 116       116   980     734.0 
 117       117   980     749.7 
 118       118   980     733.0 
 119       119   980     722.1 
 120       120   979     737.5 
 121       121   980     746.9 
 122       122   980     747.3 
 123       123   981     709.5 
 124       124   979     688.5 
 125       125   980     750.7 
 126       126   980     734.7 
 127       127   981     714.6 
 128       128   980     736.4 
 129       129   979     737.5 
 130       130   979     719.8 
 131       131   980     753.4 
 132       132   980     758.2 
 133       133   979     729.3 
 134       134   979     752.1 
 135       135   979     776.6 
 136       136   980     762.9 
 137       137   979     773.6 
 138       138   979     770.5 
 139       139   979     789.9 
 140       140   980     783.0 
 141       141   980     753.7 
 142       142   978     793.5 
 143       143   980     783.0 
 144       144   979     778.0 
 145       145   980     770.1 
 146       146   978     772.3 
 147       147   979     786.2 
 148       148   979     779.0 
 149       149   979     748.0 
 150       150   979     748.0 
 151       210  1000     660.3 
 152       270   997     803.7 
 153       330  1000     753.0 
 154       390   996     882.9 
 155       450   996     703.8 
 156       510   996     835.3 
 157       570   994     740.4 
 158       630   998     766.2 
 159       810   983     747.4 
 160       990   980     860.2 
 161      1170   985     731.6 
 162      1350   986     750.2 
 163      1530   981     807.7 
 164      2070   980     673.1 
 165      2691   973     725.9 
 166      3405   978     775.7 
 167      4226   978     680.0 
 168      5170   976     733.9 
 169      6256   975     702.2 
 170      7505   974     701.6 
 171      8941   977     621.6 
 172     10592   975     655.0 
 173     12491   973     631.7 
 174     14675   979     620.4 
 175     17187   975     650.6 
 176     20076   974     614.0 
 177     23398   977     561.2 
 178     27218   979     582.6 
 179     31611   980     585.0 
 180     36663   980     470.1 
 181     42473   977     532.9 
 182     49155   978     551.1 
 183     56839   980     591.5 
 184     65676   977     470.1 
 185     75839   981     470.1 
