PC/104 FIRe Fluorometer 2.0.0
 4/ 8/2025     28236
LED Color:           blue
Gain:               2000
Sample Delay (msec):    10
Number Samples:   3
STF (usec):      150
STRP (#samples):       35
STRI (usec):       60
MTF (ms):        0
MTF (#samples):     0
MTRP (#samples):        0
MTRI (usec):      100
PQLen:     4
Ambient Light Source Power: Off
PAR (uMol/m^2/s):900.00
Comment:
Depth(m):   3.9
Temperature(C):  46.1
Battery(V):  16.19

         Time    EX   Fl-Yield 
DATA--------------------------
   0         0     0       0.0 
   1         1   156      -4.3 
   2         2   817      31.0 
   3         3   953     105.3 
   4         4   969     153.4 
   5         5   972     154.3 
   6         6   973     119.9 
   7         7   973      85.0 
   8         8   977      90.4 
   9         9   974     169.4 
  10        10   975     181.5 
  11        11   976      40.0 
  12        12   977     113.3 
  13        13   977     196.9 
  14        14   977     163.4 
  15        15   977      89.0 
  16        16   978     112.8 
  17        17   980     124.1 
  18        18   977     156.9 
  19        19   978     114.9 
  20        20   979      94.3 
  21        21   980     187.1 
  22        22   979     259.4 
  23        23   979     113.7 
  24        24   979      81.0 
  25        25   980     130.3 
  26        26   980     219.4 
  27        27   978     183.4 
  28        28   980     174.1 
  29        29   980     153.1 
  30        30   980     185.7 
  31        31   980     211.2 
  32        32   980     160.5 
  33        33   980     163.9 
  34        34   981     154.3 
  35        35   981     216.1 
  36        36   980     143.5 
  37        37   981     131.8 
  38        38   980     122.8 
  39        39   981     235.5 
  40        40   980     142.9 
  41        41   981     201.8 
  42        42   980     160.5 
  43        43   982      95.0 
  44        44   981     211.7 
  45        45   980     186.1 
  46        46   981     162.1 
  47        47   982     222.7 
  48        48   982     196.5 
  49        49   981     240.2 
  50        50   981     195.7 
  51        51   980     186.4 
  52        52   983     225.5 
  53        53   981     159.7 
  54        54   981     159.7 
  55        55   981     219.5 
  56        56   982     251.2 
  57        57   982     233.9 
  58        58   981     128.8 
  59        59   981     168.5 
  60        60   980     121.8 
  61        61   983     246.2 
  62        62   981     170.6 
  63        63   981     173.6 
  64        64   981     170.2 
  65        65   982     207.7 
  66        66   982     201.0 
  67        67   981     147.5 
  68        68   981     134.6 
  69        69   981     205.9 
  70        70   983     241.4 
  71        71   980     137.8 
  72        72   981     110.8 
  73        73   981     173.6 
  74        74   982     230.8 
  75        75   981     195.4 
  76        76   980     125.5 
  77        77   980      88.8 
  78        78   982     188.7 
  79        79   982     182.6 
  80        80   980     127.9 
  81        81   981     138.6 
  82        82   980     179.9 
  83        83   982     207.4 
  84        84   980     170.4 
  85        85   980     173.8 
  86        86   980     209.9 
  87        87   982     224.7 
  88        88   981     210.3 
  89        89   980     137.1 
  90        90   981     154.6 
  91        91   981     169.6 
  92        92   982     182.6 
  93        93   980     143.9 
  94        94   980      93.2 
  95        95   980     198.3 
  96        96   982     178.2 
  97        97   981     147.8 
  98        98   980     149.3 
  99        99   980      82.0 
 100       100   980     112.6 
 101       101   981     156.0 
 102       102   980      82.3 
 103       103   980     129.9 
 104       104   980     171.1 
 105       105   982     217.9 
 106       106   980      87.4 
 107       107   980      64.3 
 108       108   980     191.8 
 109       109   981     209.7 
 110       110   980     184.0 
 111       111   980      90.5 
 112       112   980     141.8 
 113       113   980     251.4 
 114       114   981     200.1 
 115       115   980     164.6 
 116       116   980     178.6 
 117       117   980     168.0 
 118       118   980     187.1 
 119       119   980     188.8 
 120       120   979     186.9 
 121       121   980     170.7 
 122       122   980     220.4 
 123       123   981     234.8 
 124       124   979     140.6 
 125       125   980     197.3 
 126       126   980     188.8 
 127       127   981     204.9 
 128       128   980     115.0 
 129       129   979     131.4 
 130       130   979     220.3 
 131       131   980     223.5 
 132       132   980     174.1 
 133       133   979     160.0 
 134       134   979     174.7 
 135       135   979     211.1 
 136       136   980     216.3 
 137       137   979     188.3 
 138       138   979     148.1 
 139       139   979     251.6 
 140       140   980     184.0 
 141       141   980      98.6 
 142       142   978     157.1 
 143       143   980     180.6 
 144       144   979     263.5 
 145       145   980     156.5 
 146       146   978     139.4 
 147       147   979     143.0 
 148       148   979     224.0 
 149       149   979     196.5 
 150       150   979     196.5 
 151       210  1000     103.0 
 152       270   997     178.2 
 153       330  1000     172.3 
 154       390   996     292.5 
 155       450   996     212.5 
 156       510   996      19.1 
 157       570   994     123.1 
 158       630   998     335.7 
 159       810   983      76.6 
 160       990   980     159.9 
 161      1170   985     311.0 
 162      1350   986      91.3 
 163      1530   981     185.5 
 164      2070   980      95.2 
 165      2691   973      41.8 
 166      3405   978     174.2 
 167      4226   978     221.2 
 168      5170   976     130.5 
 169      6256   975     195.2 
 170      7505   974     223.1 
 171      8941   977     124.9 
 172     10592   975     149.7 
 173     12491   973     174.7 
 174     14675   979      99.8 
 175     17187   975      33.2 
 176     20076   974     132.1 
 177     23398   977     132.4 
 178     27218   979     161.0 
 179     31611   980     102.4 
 180     36663   980     175.9 
 181     42473   977     172.0 
 182     49155   978     -22.8 
 183     56839   980     203.7 
 184     65676   977     188.0 
 185     75839   981     188.0 
   1         1   156     585.5 
   2         2   817     279.5 
   3         3   953     185.7 
   4         4   969     167.9 
   5         5   972     278.5 
   6         6   973     283.0 
   7         7   973     204.9 
   8         8   977     233.7 
   9         9   974     319.3 
  10        10   975     350.4 
  11        11   976     321.4 
  12        12   977     338.8 
  13        13   977     384.9 
  14        14   977     417.3 
  15        15   977     409.1 
  16        16   978     414.1 
  17        17   980     406.5 
  18        18   977     438.4 
  19        19   978     422.3 
  20        20   979     367.0 
  21        21   980     297.3 
  22        22   979     263.5 
  23        23   979     332.7 
  24        24   979     272.0 
  25        25   980     276.9 
  26        26   980     278.2 
  27        27   978     316.6 
  28        28   980     331.3 
  29        29   980     258.8 
  30        30   980     234.7 
  31        31   980     233.0 
  32        32   980     316.0 
  33        33   980     326.5 
  34        34   981     301.7 
  35        35   981     235.1 
  36        36   980     296.3 
  37        37   981     282.0 
  38        38   980     210.9 
  39        39   981     238.9 
  40        40   980     262.6 
  41        41   981     257.2 
  42        42   980     207.5 
  43        43   982     173.1 
  44        44   981     282.0 
  45        45   980     310.9 
  46        46   981     286.8 
  47        47   982     213.5 
  48        48   982     216.2 
  49        49   981     259.3 
  50        50   981     240.6 
  51        51   980     251.0 
  52        52   983     203.5 
  53        53   981     238.5 
  54        54   981     323.8 
  55        55   981     249.1 
  56        56   982     251.2 
  57        57   982     286.8 
  58        58   981     332.3 
  59        59   981     256.5 
  60        60   980     247.6 
  61        61   983     239.7 
  62        62   981     248.0 
  63        63   981     312.9 
  64        64   981     218.8 
  65        65   982     268.5 
  66        66   982     254.9 
  67        67   981     327.9 
  68        68   981     255.2 
  69        69   981     206.6 
  70        70   983     274.7 
  71        71   980     392.9 
  72        72   981     291.2 
  73        73   981     265.7 
  74        74   982     225.7 
  75        75   981     256.9 
  76        76   980     306.1 
  77        77   980     262.9 
  78        78   982     223.4 
  79        79   982     319.8 
  80        80   980     343.5 
  81        81   981     284.4 
  82        82   980     218.4 
  83        83   982     246.4 
  84        84   980     368.7 
  85        85   980     302.7 
  86        86   980     252.4 
  87        87   982     221.3 
  88        88   981     291.2 
  89        89   980     331.3 
  90        90   981     298.7 
  91        91   981     268.8 
  92        92   982     284.1 
  93        93   980     339.5 
  94        94   980     317.0 
  95        95   980     236.7 
  96        96   982     253.9 
  97        97   981     335.7 
  98        98   980     335.7 
  99        99   980     274.8 
 100       100   980     284.0 
 101       101   981     261.0 
 102       102   980     357.1 
 103       103   980     282.7 
 104       104   980     223.1 
 105       105   982     293.3 
 106       106   980     341.8 
 107       107   980     296.6 
 108       108   980     271.8 
 109       109   981     303.4 
 110       110   980     274.1 
 111       111   980     316.0 
 112       112   980     284.7 
 113       113   980     218.7 
 114       114   981     209.3 
 115       115   980     311.2 
 116       116   980     335.7 
 117       117   980     285.7 
 118       118   980     231.3 
 119       119   980     365.0 
 120       120   979     307.8 
 121       121   980     238.8 
 122       122   980     229.9 
 123       123   981     294.6 
 124       124   979     274.4 
 125       125   980     262.2 
 126       126   980     234.0 
 127       127   981     318.4 
 128       128   980     347.3 
 129       129   979     330.6 
 130       130   979     223.7 
 131       131   980     249.3 
 132       132   980     294.2 
 133       133   979     324.1 
 134       134   979     243.4 
 135       135   979     256.4 
 136       136   980     309.2 
 137       137   979     339.1 
 138       138   979     254.7 
 139       139   979     228.8 
 140       140   980     270.7 
 141       141   980     342.5 
 142       142   978     358.6 
 143       143   980     285.7 
 144       144   979     273.1 
 145       145   980     272.1 
 146       146   978     349.0 
 147       147   979     342.9 
 148       148   979     268.6 
 149       149   979     259.1 
 150       150   979     259.1 
 151       210  1000     250.7 
 152       270   997     343.7 
 153       330  1000     224.3 
 154       390   996     267.1 
 155       450   996     440.8 
 156       510   996     322.6 
 157       570   994     225.4 
 158       630   998     215.8 
 159       810   983     298.4 
 160       990   980     157.1 
 161      1170   985     169.9 
 162      1350   986     269.4 
 163      1530   981     207.3 
 164      2070   980     395.6 
 165      2691   973     391.2 
 166      3405   978     250.9 
 167      4226   978     352.1 
 168      5170   976     220.6 
 169      6256   975     230.4 
 170      7505   974     262.5 
 171      8941   977     200.3 
 172     10592   975     285.1 
 173     12491   973     225.4 
 174     14675   979     205.3 
 175     17187   975     269.7 
 176     20076   974     221.4 
 177     23398   977     159.3 
 178     27218   979     203.6 
 179     31611   980     140.8 
 180     36663   980     243.2 
 181     42473   977     158.6 
 182     49155   978     248.8 
 183     56839   980     278.2 
 184     65676   977     245.0 
 185     75839   981     245.0 
