PC/104 FIRe Fluorometer 2.0.0
 4/ 8/2025     37185
LED Color:           blue
Gain:               2000
Sample Delay (msec):    10
Number Samples:   3
STF (usec):      150
STRP (#samples):       35
STRI (usec):       60
MTF (ms):        0
MTF (#samples):     0
MTRP (#samples):        0
MTRI (usec):      100
PQLen:     4
Ambient Light Source Power: Off
PAR (uMol/m^2/s):228.60
Comment:
Depth(m):  -0.7
Temperature(C):  73.0
Battery(V):  14.37

         Time    EX   Fl-Yield 
DATA--------------------------
   0         0     0       0.0 
   1         1   156     143.2 
   2         2   817     334.6 
   3         3   953     370.8 
   4         4   969     371.2 
   5         5   972     392.3 
   6         6   973     391.2 
   7         7   973     374.4 
   8         8   977     383.8 
   9         9   974     333.7 
  10        10   975     377.1 
  11        11   976     374.7 
  12        12   977     424.1 
  13        13   977     392.7 
  14        14   977     412.5 
  15        15   977     422.7 
  16        16   978     467.3 
  17        17   980     421.4 
  18        18   977     437.4 
  19        19   978     408.7 
  20        20   979     450.1 
  21        21   980     460.5 
  22        22   979     447.1 
  23        23   979     464.4 
  24        24   979     500.2 
  25        25   980     427.6 
  26        26   980     426.5 
  27        27   978     496.9 
  28        28   980     493.5 
  29        29   980     489.8 
  30        30   980     469.4 
  31        31   980     485.4 
  32        32   980     481.3 
  33        33   980     459.5 
  34        34   981     514.1 
  35        35   981     471.3 
  36        36   980     510.2 
  37        37   981     506.6 
  38        38   980     505.4 
  39        39   981     504.9 
  40        40   980     552.0 
  41        41   981     463.5 
  42        42   980     484.4 
  43        43   982     483.7 
  44        44   981     503.6 
  45        45   980     542.5 
  46        46   981     543.0 
  47        47   982     529.5 
  48        48   982     506.1 
  49        49   981     508.3 
  50        50   981     529.1 
  51        51   980     534.0 
  52        52   983     538.5 
  53        53   981     520.6 
  54        54   981     555.9 
  55        55   981     535.5 
  56        56   982     548.9 
  57        57   982     576.0 
  58        58   981     577.6 
  59        59   981     584.4 
  60        60   980     538.4 
  61        61   983     533.1 
  62        62   981     626.2 
  63        63   981     645.3 
  64        64   981     587.2 
  65        65   982     567.9 
  66        66   982     591.3 
  67        67   981     607.9 
  68        68   981     569.1 
  69        69   981     609.6 
  70        70   983     578.2 
  71        71   980     649.3 
  72        72   981     585.8 
  73        73   981     591.9 
  74        74   982     586.2 
  75        75   981     642.2 
  76        76   980     565.6 
  77        77   980     586.4 
  78        78   982     634.4 
  79        79   982     555.0 
  80        80   980     580.6 
  81        81   981     555.9 
  82        82   980     591.8 
  83        83   982     578.4 
  84        84   980     565.3 
  85        85   980     552.7 
  86        86   980     615.6 
  87        87   982     585.9 
  88        88   981     574.9 
  89        89   980     564.3 
  90        90   981     560.7 
  91        91   981     592.9 
  92        92   982     567.9 
  93        93   980     580.6 
  94        94   980     588.4 
  95        95   980     587.1 
  96        96   982     555.7 
  97        97   981     575.6 
  98        98   980     578.6 
  99        99   980     555.8 
 100       100   980     533.0 
 101       101   981     525.0 
 102       102   980     563.9 
 103       103   980     551.4 
 104       104   980     545.6 
 105       105   982     558.0 
 106       106   980     535.0 
 107       107   980     526.5 
 108       108   980     533.7 
 109       109   981     519.2 
 110       110   980     552.4 
 111       111   980     537.8 
 112       112   980     527.9 
 113       113   980     454.8 
 114       114   981     530.1 
 115       115   980     532.3 
 116       116   980     556.5 
 117       117   980     539.1 
 118       118   980     491.2 
 119       119   980     543.2 
 120       120   979     501.9 
 121       121   980     578.2 
 122       122   980     515.0 
 123       123   981     550.5 
 124       124   979     560.8 
 125       125   980     554.1 
 126       126   980     573.1 
 127       127   981     500.8 
 128       128   980     525.2 
 129       129   979     552.6 
 130       130   979     523.3 
 131       131   980     506.5 
 132       132   980     530.3 
 133       133   979     500.9 
 134       134   979     487.6 
 135       135   979     505.3 
 136       136   980     507.5 
 137       137   979     548.2 
 138       138   979     536.9 
 139       139   979     500.5 
 140       140   980     492.5 
 141       141   980     557.1 
 142       142   978     492.2 
 143       143   980     497.3 
 144       144   979     471.9 
 145       145   980     543.2 
 146       146   978     527.9 
 147       147   979     510.0 
 148       148   979     477.7 
 149       149   979     519.6 
 150       150   979     519.6 
 151       210  1000     654.0 
 152       270   997     537.3 
 153       330  1000     484.3 
 154       390   996     461.2 
 155       450   996     535.8 
 156       510   996     477.2 
 157       570   994     594.9 
 158       630   998     448.9 
 159       810   983     562.9 
 160       990   980     462.6 
 161      1170   985     504.6 
 162      1350   986     465.5 
 163      1530   981     422.7 
 164      2070   980     578.6 
 165      2691   973     444.0 
 166      3405   978     465.2 
 167      4226   978     523.2 
 168      5170   976     405.4 
 169      6256   975     390.8 
 170      7505   974     481.2 
 171      8941   977     326.2 
 172     10592   975     453.0 
 173     12491   973     419.0 
 174     14675   979     319.4 
 175     17187   975     527.9 
 176     20076   974     388.8 
 177     23398   977     453.1 
 178     27218   979     488.3 
 179     31611   980     440.8 
 180     36663   980     406.1 
 181     42473   977     412.1 
 182     49155   978     403.9 
 183     56839   980     376.9 
 184     65676   977     448.3 
 185     75839   981     448.3 
   1         1   156     217.9 
   2         2   817     614.4 
   3         3   953     646.4 
   4         4   969     601.7 
   5         5   972     626.5 
   6         6   973     622.8 
   7         7   973     674.2 
   8         8   977     560.9 
   9         9   974     652.6 
  10        10   975     602.4 
  11        11   976     672.8 
  12        12   977     659.5 
  13        13   977     671.4 
  14        14   977     642.8 
  15        15   977     684.7 
  16        16   978     722.2 
  17        17   980     704.1 
  18        18   977     724.0 
  19        19   978     682.3 
  20        20   979     705.1 
  21        21   980     666.3 
  22        22   979     688.8 
  23        23   979     690.5 
  24        24   979     695.6 
  25        25   980     684.0 
  26        26   980     674.8 
  27        27   978     604.3 
  28        28   980     621.1 
  29        29   980     687.1 
  30        30   980     694.2 
  31        31   980     686.1 
  32        32   980     672.4 
  33        33   980     710.5 
  34        34   981     719.0 
  35        35   981     687.1 
  36        36   980     691.2 
  37        37   981     700.6 
  38        38   980     719.7 
  39        39   981     685.7 
  40        40   980     758.8 
  41        41   981     727.8 
  42        42   980     723.5 
  43        43   982     677.9 
  44        44   981     676.9 
  45        45   980     715.0 
  46        46   981     749.6 
  47        47   982     734.9 
  48        48   982     738.6 
  49        49   981     694.2 
  50        50   981     732.6 
  51        51   980     674.5 
  52        52   983     689.4 
  53        53   981     735.3 
  54        54   981     736.0 
  55        55   981     720.0 
  56        56   982     705.7 
  57        57   982     728.1 
  58        58   981     696.6 
  59        59   981     733.6 
  60        60   980     729.9 
  61        61   983     723.0 
  62        62   981     687.1 
  63        63   981     687.7 
  64        64   981     723.8 
  65        65   982     672.4 
  66        66   982     703.7 
  67        67   981     695.5 
  68        68   981     725.1 
  69        69   981     716.3 
  70        70   983     750.1 
  71        71   980     757.5 
  72        72   981     743.5 
  73        73   981     739.4 
  74        74   982     675.8 
  75        75   981     727.8 
  76        76   980     677.6 
  77        77   980     774.8 
  78        78   982     660.6 
  79        79   982     724.7 
  80        80   980     723.8 
  81        81   981     770.6 
  82        82   980     717.0 
  83        83   982     717.9 
  84        84   980     673.1 
  85        85   980     726.2 
  86        86   980     706.1 
  87        87   982     737.9 
  88        88   981     727.8 
  89        89   980     710.9 
  90        90   981     726.1 
  91        91   981     756.7 
  92        92   982     684.0 
  93        93   980     732.3 
  94        94   980     734.4 
  95        95   980     677.6 
  96        96   982     673.5 
  97        97   981     698.6 
  98        98   980     726.2 
  99        99   980     706.5 
 100       100   980     705.4 
 101       101   981     683.3 
 102       102   980     645.2 
 103       103   980     704.1 
 104       104   980     707.1 
 105       105   982     674.5 
 106       106   980     644.2 
 107       107   980     718.0 
 108       108   980     722.1 
 109       109   981     639.5 
 110       110   980     691.8 
 111       111   980     676.9 
 112       112   980     750.0 
 113       113   980     661.6 
 114       114   981     697.6 
 115       115   980     660.2 
 116       116   980     724.1 
 117       117   980     674.5 
 118       118   980     642.2 
 119       119   980     677.6 
 120       120   979     656.1 
 121       121   980     733.7 
 122       122   980     653.7 
 123       123   981     692.8 
 124       124   979     655.8 
 125       125   980     685.4 
 126       126   980     639.5 
 127       127   981     675.2 
 128       128   980     701.7 
 129       129   979     723.2 
 130       130   979     690.5 
 131       131   980     684.4 
 132       132   980     708.8 
 133       133   979     696.6 
 134       134   979     717.1 
 135       135   979     679.3 
 136       136   980     678.9 
 137       137   979     654.1 
 138       138   979     729.0 
 139       139   979     695.6 
 140       140   980     695.9 
 141       141   980     675.5 
 142       142   978     707.6 
 143       143   980     668.4 
 144       144   979     637.0 
 145       145   980     709.2 
 146       146   978     651.7 
 147       147   979     727.3 
 148       148   979     700.4 
 149       149   979     718.8 
 150       150   979     718.8 
 151       210  1000     777.7 
 152       270   997     724.2 
 153       330  1000     674.3 
 154       390   996     716.9 
 155       450   996     799.9 
 156       510   996     671.7 
 157       570   994     730.4 
 158       630   998     795.9 
 159       810   983     804.0 
 160       990   980     724.5 
 161      1170   985     715.1 
 162      1350   986     695.4 
 163      1530   981     692.5 
 164      2070   980     704.4 
 165      2691   973     807.1 
 166      3405   978     665.3 
 167      4226   978     731.4 
 168      5170   976     627.0 
 169      6256   975     697.8 
 170      7505   974     723.1 
 171      8941   977     637.3 
 172     10592   975     674.5 
 173     12491   973     629.7 
 174     14675   979     614.2 
 175     17187   975     559.7 
 176     20076   974     635.2 
 177     23398   977     572.8 
 178     27218   979     596.2 
 179     31611   980     518.0 
 180     36663   980     633.0 
 181     42473   977     527.8 
 182     49155   978     599.9 
 183     56839   980     515.6 
 184     65676   977     506.7 
 185     75839   981     506.7 
