PC/104 FIRe Fluorometer 2.0.0
 4/ 8/2025     24425
LED Color:           blue
Gain:               1400
Sample Delay (msec):    10
Number Samples:   3
STF (usec):      150
STRP (#samples):       35
STRI (usec):       60
MTF (ms):        0
MTF (#samples):     0
MTRP (#samples):        0
MTRI (usec):      100
PQLen:     4
Ambient Light Source Power: Off
PAR (uMol/m^2/s):630.00
Comment:
Depth(m):   3.7
Temperature(C):  36.9
Battery(V):  16.60

         Time    EX   Fl-Yield 
DATA--------------------------
   0         0     0       0.0 
   1         1   156     203.0 
   2         2   817     259.5 
   3         3   953     270.7 
   4         4   969     284.5 
   5         5   972     303.8 
   6         6   973     286.7 
   7         7   973     313.8 
   8         8   977     300.6 
   9         9   974     309.4 
  10        10   975     311.8 
  11        11   976     310.1 
  12        12   977     328.6 
  13        13   977     314.2 
  14        14   977     322.4 
  15        15   977     313.2 
  16        16   978     341.9 
  17        17   980     340.5 
  18        18   977     362.0 
  19        19   978     344.6 
  20        20   979     360.9 
  21        21   980     371.4 
  22        22   979     376.9 
  23        23   979     369.8 
  24        24   979     361.6 
  25        25   980     377.2 
  26        26   980     384.0 
  27        27   978     380.4 
  28        28   980     368.7 
  29        29   980     400.7 
  30        30   980     403.4 
  31        31   980     406.8 
  32        32   980     415.6 
  33        33   980     427.9 
  34        34   981     442.1 
  35        35   981     426.4 
  36        36   980     434.0 
  37        37   981     435.3 
  38        38   980     457.1 
  39        39   981     462.8 
  40        40   980     452.0 
  41        41   981     450.9 
  42        42   980     476.9 
  43        43   982     466.1 
  44        44   981     488.3 
  45        45   980     483.7 
  46        46   981     491.0 
  47        47   982     493.9 
  48        48   982     492.2 
  49        49   981     500.8 
  50        50   981     517.2 
  51        51   980     515.6 
  52        52   983     532.7 
  53        53   981     518.5 
  54        54   981     524.6 
  55        55   981     525.7 
  56        56   982     529.5 
  57        57   982     530.2 
  58        58   981     528.4 
  59        59   981     545.7 
  60        60   980     552.4 
  61        61   983     559.2 
  62        62   981     554.5 
  63        63   981     568.8 
  64        64   981     553.2 
  65        65   982     580.1 
  66        66   982     560.1 
  67        67   981     582.4 
  68        68   981     592.6 
  69        69   981     604.8 
  70        70   983     588.7 
  71        71   980     589.8 
  72        72   981     615.7 
  73        73   981     606.2 
  74        74   982     624.2 
  75        75   981     598.0 
  76        76   980     609.2 
  77        77   980     609.9 
  78        78   982     640.9 
  79        79   982     619.5 
  80        80   980     632.7 
  81        81   981     627.6 
  82        82   980     644.6 
  83        83   982     631.4 
  84        84   980     626.9 
  85        85   980     639.8 
  86        86   980     646.3 
  87        87   982     643.9 
  88        88   981     646.6 
  89        89   980     637.8 
  90        90   981     650.7 
  91        91   981     654.4 
  92        92   982     654.8 
  93        93   980     663.9 
  94        94   980     659.5 
  95        95   980     671.8 
  96        96   982     668.4 
  97        97   981     658.2 
  98        98   980     679.3 
  99        99   980     679.3 
 100       100   980     678.6 
 101       101   981     675.8 
 102       102   980     688.4 
 103       103   980     692.5 
 104       104   980     697.3 
 105       105   982     677.9 
 106       106   980     684.0 
 107       107   980     717.7 
 108       108   980     720.7 
 109       109   981     707.8 
 110       110   980     709.2 
 111       111   980     708.2 
 112       112   980     704.8 
 113       113   980     704.8 
 114       114   981     714.6 
 115       115   980     706.8 
 116       116   980     716.3 
 117       117   980     708.5 
 118       118   980     707.5 
 119       119   980     711.6 
 120       120   979     728.6 
 121       121   980     716.7 
 122       122   980     709.2 
 123       123   981     715.3 
 124       124   979     719.4 
 125       125   980     716.0 
 126       126   980     711.2 
 127       127   981     718.7 
 128       128   980     726.2 
 129       129   979     730.3 
 130       130   979     740.2 
 131       131   980     724.8 
 132       132   980     743.2 
 133       133   979     726.9 
 134       134   979     751.8 
 135       135   979     730.0 
 136       136   980     728.9 
 137       137   979     733.4 
 138       138   979     759.6 
 139       139   979     748.7 
 140       140   980     751.7 
 141       141   980     736.4 
 142       142   978     762.8 
 143       143   980     755.8 
 144       144   979     738.2 
 145       145   980     752.7 
 146       146   978     754.6 
 147       147   979     754.9 
 148       148   979     746.0 
 149       149   979     752.1 
 150       150   979     752.1 
 151       210  1000     676.3 
 152       270   997     642.6 
 153       330  1000     586.7 
 154       390   996     575.3 
 155       450   996     575.6 
 156       510   996     524.1 
 157       570   994     533.5 
 158       630   998     502.3 
 159       810   983     459.1 
 160       990   980     436.1 
 161      1170   985     422.0 
 162      1350   986     416.5 
 163      1530   981     382.6 
 164      2070   980     385.0 
 165      2691   973     351.8 
 166      3405   978     307.4 
 167      4226   978     297.9 
 168      5170   976     334.7 
 169      6256   975     298.5 
 170      7505   974     297.7 
 171      8941   977     276.7 
 172     10592   975     273.2 
 173     12491   973     303.5 
 174     14675   979     297.6 
 175     17187   975     276.6 
 176     20076   974     302.2 
 177     23398   977     304.3 
 178     27218   979     271.0 
 179     31611   980     233.0 
 180     36663   980     213.9 
 181     42473   977     232.7 
 182     49155   978     221.2 
 183     56839   980     242.2 
 184     65676   977     213.6 
 185     75839   981     213.6 
   1         1   156    1459.4 
   2         2   817    1462.3 
   3         3   953    1450.5 
   4         4   969    1441.3 
   5         5   972    1432.8 
   6         6   973    1458.4 
   7         7   973    1456.7 
   8         8   977    1468.4 
   9         9   974    1470.9 
  10        10   975    1488.5 
  11        11   976    1492.1 
  12        12   977    1507.0 
  13        13   977    1503.9 
  14        14   977    1519.3 
  15        15   977    1513.8 
  16        16   978    1528.6 
  17        17   980    1517.0 
  18        18   977    1517.2 
  19        19   978    1520.8 
  20        20   979    1513.4 
  21        21   980    1512.9 
  22        22   979    1500.5 
  23        23   979    1515.5 
  24        24   979    1527.4 
  25        25   980    1512.9 
  26        26   980    1508.8 
  27        27   978    1504.8 
  28        28   980    1508.8 
  29        29   980    1521.1 
  30        30   980    1495.2 
  31        31   980    1508.8 
  32        32   980    1502.0 
  33        33   980    1511.2 
  34        34   981    1521.6 
  35        35   981    1515.1 
  36        36   980    1522.8 
  37        37   981    1512.4 
  38        38   980    1531.3 
  39        39   981    1514.8 
  40        40   980    1529.6 
  41        41   981    1547.1 
  42        42   980    1540.1 
  43        43   982    1521.4 
  44        44   981    1528.7 
  45        45   980    1540.5 
  46        46   981    1552.2 
  47        47   982    1534.6 
  48        48   982    1532.9 
  49        49   981    1544.0 
  50        50   981    1545.4 
  51        51   980    1558.2 
  52        52   983    1533.1 
  53        53   981    1558.3 
  54        54   981    1560.0 
  55        55   981    1548.1 
  56        56   982    1550.6 
  57        57   982    1554.3 
  58        58   981    1570.8 
  59        59   981    1559.6 
  60        60   980    1567.0 
  61        61   983    1549.7 
  62        62   981    1578.0 
  63        63   981    1560.3 
  64        64   981    1563.4 
  65        65   982    1558.0 
  66        66   982    1568.6 
  67        67   981    1569.8 
  68        68   981    1558.6 
  69        69   981    1571.9 
  70        70   983    1580.9 
  71        71   980    1587.1 
  72        72   981    1565.7 
  73        73   981    1562.4 
  74        74   982    1566.9 
  75        75   981    1578.0 
  76        76   980    1577.9 
  77        77   980    1582.7 
  78        78   982    1566.5 
  79        79   982    1568.6 
  80        80   980    1580.6 
  81        81   981    1577.6 
  82        82   980    1570.4 
  83        83   982    1571.6 
  84        84   980    1588.4 
  85        85   980    1572.1 
  86        86   980    1582.7 
  87        87   982    1575.0 
  88        88   981    1592.6 
  89        89   980    1594.6 
  90        90   981    1561.7 
  91        91   981    1572.9 
  92        92   982    1590.6 
  93        93   980    1594.9 
  94        94   980    1568.4 
  95        95   980    1577.9 
  96        96   982    1574.0 
  97        97   981    1584.4 
  98        98   980    1584.4 
  99        99   980    1574.1 
 100       100   980    1582.0 
 101       101   981    1581.7 
 102       102   980    1582.0 
 103       103   980    1581.3 
 104       104   980    1585.4 
 105       105   982    1589.6 
 106       106   980    1582.3 
 107       107   980    1583.3 
 108       108   980    1582.0 
 109       109   981    1597.0 
 110       110   980    1587.8 
 111       111   980    1591.8 
 112       112   980    1586.1 
 113       113   980    1577.9 
 114       114   981    1595.0 
 115       115   980    1600.0 
 116       116   980    1575.9 
 117       117   980    1584.7 
 118       118   980    1576.2 
 119       119   980    1582.3 
 120       120   979    1579.8 
 121       121   980    1590.1 
 122       122   980    1604.4 
 123       123   981    1579.0 
 124       124   979    1567.6 
 125       125   980    1581.0 
 126       126   980    1594.2 
 127       127   981    1604.8 
 128       128   980    1575.2 
 129       129   979    1585.3 
 130       130   979    1583.9 
 131       131   980    1596.6 
 132       132   980    1598.0 
 133       133   979    1588.0 
 134       134   979    1596.2 
 135       135   979    1611.5 
 136       136   980    1606.8 
 137       137   979    1587.7 
 138       138   979    1597.9 
 139       139   979    1612.2 
 140       140   980    1603.1 
 141       141   980    1593.5 
 142       142   978    1594.8 
 143       143   980    1605.1 
 144       144   979    1619.7 
 145       145   980    1601.0 
 146       146   978    1599.9 
 147       147   979    1585.3 
 148       148   979    1606.4 
 149       149   979    1599.3 
 150       150   979    1599.3 
 151       210  1000    1566.0 
 152       270   997    1567.0 
 153       330  1000    1559.3 
 154       390   996    1554.9 
 155       450   996    1564.3 
 156       510   996    1522.8 
 157       570   994    1523.5 
 158       630   998    1514.4 
 159       810   983    1500.8 
 160       990   980    1508.8 
 161      1170   985    1502.9 
 162      1350   986    1486.8 
 163      1530   981    1472.0 
 164      2070   980    1424.1 
 165      2691   973    1392.9 
 166      3405   978    1354.5 
 167      4226   978    1327.9 
 168      5170   976    1295.1 
 169      6256   975    1286.5 
 170      7505   974    1225.2 
 171      8941   977    1235.8 
 172     10592   975    1192.8 
 173     12491   973    1193.9 
 174     14675   979    1088.9 
 175     17187   975    1101.9 
 176     20076   974    1051.7 
 177     23398   977     986.7 
 178     27218   979     967.7 
 179     31611   980     912.9 
 180     36663   980     884.7 
 181     42473   977     837.9 
 182     49155   978     815.6 
 183     56839   980     767.3 
 184     65676   977     761.5 
 185     75839   981     761.5 
