PC/104 FIRe Fluorometer 2.0.0
 4/ 8/2025     33451
LED Color:           blue
Gain:               2000
Sample Delay (msec):    10
Number Samples:   3
STF (usec):      150
STRP (#samples):       35
STRI (usec):       60
MTF (ms):        0
MTF (#samples):     0
MTRP (#samples):        0
MTRI (usec):      100
PQLen:     4
Ambient Light Source Power: Off
PAR (uMol/m^2/s):630.00
Comment:
Depth(m):   1.7
Temperature(C):  67.1
Battery(V):  15.10

         Time    EX   Fl-Yield 
DATA--------------------------
   0         0     0       0.0 
   1         1   156    -226.5 
   2         2   817     196.2 
   3         3   953     246.6 
   4         4   969     222.9 
   5         5   972     223.6 
   6         6   973     222.0 
   7         7   973     277.5 
   8         8   977     218.0 
   9         9   974     234.4 
  10        10   975     211.3 
  11        11   976     275.3 
  12        12   977     316.3 
  13        13   977     234.0 
  14        14   977     243.3 
  15        15   977     249.1 
  16        16   978     281.2 
  17        17   980     292.5 
  18        18   977     269.5 
  19        19   978     261.8 
  20        20   979     277.2 
  21        21   980     270.4 
  22        22   979     303.0 
  23        23   979     287.0 
  24        24   979     255.0 
  25        25   980     256.8 
  26        26   980     312.2 
  27        27   978     289.4 
  28        28   980     240.8 
  29        29   980     300.7 
  30        30   980     278.2 
  31        31   980     298.0 
  32        32   980     301.7 
  33        33   980     306.8 
  34        34   981     274.5 
  35        35   981     313.6 
  36        36   980     291.8 
  37        37   981     267.8 
  38        38   980     326.2 
  39        39   981     306.2 
  40        40   980     306.8 
  41        41   981     292.6 
  42        42   980     304.8 
  43        43   982     283.4 
  44        44   981     296.3 
  45        45   980     259.5 
  46        46   981     281.7 
  47        47   982     301.4 
  48        48   982     272.9 
  49        49   981     217.5 
  50        50   981     249.7 
  51        51   980     307.8 
  52        52   983     331.6 
  53        53   981     292.9 
  54        54   981     302.8 
  55        55   981     292.9 
  56        56   982     302.4 
  57        57   982     284.8 
  58        58   981     368.3 
  59        59   981     276.9 
  60        60   980     292.2 
  61        61   983     285.9 
  62        62   981     329.9 
  63        63   981     340.8 
  64        64   981     343.9 
  65        65   982     328.2 
  66        66   982     370.3 
  67        67   981     368.0 
  68        68   981     303.8 
  69        69   981     379.2 
  70        70   983     372.3 
  71        71   980     349.7 
  72        72   981     319.4 
  73        73   981     388.0 
  74        74   982     343.5 
  75        75   981     341.1 
  76        76   980     363.3 
  77        77   980     345.6 
  78        78   982     372.7 
  79        79   982     365.6 
  80        80   980     326.2 
  81        81   981     344.2 
  82        82   980     372.1 
  83        83   982     346.2 
  84        84   980     310.9 
  85        85   980     363.9 
  86        86   980     288.4 
  87        87   982     341.5 
  88        88   981     334.0 
  89        89   980     326.2 
  90        90   981     302.1 
  91        91   981     325.2 
  92        92   982     320.4 
  93        93   980     321.4 
  94        94   980     286.1 
  95        95   980     310.9 
  96        96   982     350.0 
  97        97   981     296.0 
  98        98   980     286.7 
  99        99   980     292.5 
 100       100   980     301.7 
 101       101   981     337.4 
 102       102   980     277.9 
 103       103   980     318.4 
 104       104   980     294.9 
 105       105   982     317.4 
 106       106   980     318.0 
 107       107   980     299.0 
 108       108   980     295.6 
 109       109   981     286.4 
 110       110   980     311.6 
 111       111   980     358.5 
 112       112   980     285.4 
 113       113   980     324.5 
 114       114   981     282.4 
 115       115   980     306.8 
 116       116   980     314.6 
 117       117   980     342.9 
 118       118   980     295.6 
 119       119   980     286.4 
 120       120   979     277.8 
 121       121   980     294.2 
 122       122   980     321.8 
 123       123   981     287.5 
 124       124   979     321.8 
 125       125   980     289.5 
 126       126   980     330.6 
 127       127   981     362.6 
 128       128   980     312.6 
 129       129   979     324.1 
 130       130   979     330.6 
 131       131   980     291.5 
 132       132   980     271.8 
 133       133   979     341.8 
 134       134   979     287.7 
 135       135   979     273.1 
 136       136   980     323.8 
 137       137   979     305.8 
 138       138   979     309.2 
 139       139   979     232.6 
 140       140   980     318.0 
 141       141   980     234.4 
 142       142   978     297.2 
 143       143   980     253.4 
 144       144   979     288.7 
 145       145   980     351.7 
 146       146   978     289.0 
 147       147   979     291.5 
 148       148   979     296.6 
 149       149   979     321.8 
 150       150   979     321.8 
 151       210  1000     337.0 
 152       270   997     311.3 
 153       330  1000     278.7 
 154       390   996     385.9 
 155       450   996     355.4 
 156       510   996     332.3 
 157       570   994     407.1 
 158       630   998     387.8 
 159       810   983     372.0 
 160       990   980     246.6 
 161      1170   985     309.3 
 162      1350   986     220.4 
 163      1530   981     265.0 
 164      2070   980     276.2 
 165      2691   973     311.8 
 166      3405   978     322.4 
 167      4226   978     261.4 
 168      5170   976     285.5 
 169      6256   975     239.3 
 170      7505   974     256.0 
 171      8941   977     395.4 
 172     10592   975     328.2 
 173     12491   973     308.7 
 174     14675   979     288.4 
 175     17187   975     240.3 
 176     20076   974     289.9 
 177     23398   977     264.8 
 178     27218   979     266.6 
 179     31611   980     344.9 
 180     36663   980     274.5 
 181     42473   977     292.7 
 182     49155   978     192.2 
 183     56839   980     376.5 
 184     65676   977     230.6 
 185     75839   981     230.6 
   1         1   156     412.4 
   2         2   817     373.7 
   3         3   953     327.7 
   4         4   969     289.6 
   5         5   972     331.6 
   6         6   973     379.9 
   7         7   973     338.1 
   8         8   977     342.5 
   9         9   974     397.0 
  10        10   975     408.2 
  11        11   976     403.3 
  12        12   977     443.5 
  13        13   977     457.2 
  14        14   977     465.0 
  15        15   977     444.2 
  16        16   978     430.1 
  17        17   980     395.6 
  18        18   977     487.9 
  19        19   978     430.1 
  20        20   979     368.1 
  21        21   980     355.4 
  22        22   979     414.4 
  23        23   979     406.2 
  24        24   979     387.1 
  25        25   980     335.4 
  26        26   980     298.6 
  27        27   978     375.9 
  28        28   980     358.8 
  29        29   980     314.6 
  30        30   980     315.0 
  31        31   980     357.8 
  32        32   980     321.1 
  33        33   980     261.6 
  34        34   981     310.6 
  35        35   981     320.8 
  36        36   980     362.2 
  37        37   981     343.9 
  38        38   980     320.7 
  39        39   981     354.1 
  40        40   980     350.0 
  41        41   981     351.7 
  42        42   980     316.3 
  43        43   982     304.8 
  44        44   981     345.2 
  45        45   980     353.7 
  46        46   981     357.5 
  47        47   982     339.1 
  48        48   982     355.4 
  49        49   981     356.4 
  50        50   981     361.2 
  51        51   980     302.7 
  52        52   983     320.4 
  53        53   981     324.2 
  54        54   981     382.6 
  55        55   981     310.2 
  56        56   982     291.9 
  57        57   982     330.3 
  58        58   981     384.3 
  59        59   981     365.3 
  60        60   980     326.5 
  61        61   983     317.4 
  62        62   981     354.7 
  63        63   981     328.2 
  64        64   981     321.1 
  65        65   982     320.8 
  66        66   982     374.7 
  67        67   981     356.1 
  68        68   981     317.7 
  69        69   981     310.2 
  70        70   983     317.7 
  71        71   980     334.4 
  72        72   981     352.4 
  73        73   981     295.6 
  74        74   982     262.1 
  75        75   981     301.7 
  76        76   980     352.4 
  77        77   980     325.5 
  78        78   982     320.1 
  79        79   982     318.1 
  80        80   980     338.8 
  81        81   981     314.6 
  82        82   980     318.4 
  83        83   982     288.5 
  84        84   980     319.0 
  85        85   980     351.4 
  86        86   980     328.2 
  87        87   982     311.9 
  88        88   981     286.8 
  89        89   980     376.5 
  90        90   981     319.4 
  91        91   981     296.3 
  92        92   982     311.3 
  93        93   980     339.8 
  94        94   980     363.9 
  95        95   980     327.6 
  96        96   982     300.1 
  97        97   981     281.0 
  98        98   980     341.8 
  99        99   980     345.2 
 100       100   980     276.2 
 101       101   981     349.6 
 102       102   980     339.1 
 103       103   980     376.9 
 104       104   980     313.3 
 105       105   982     361.5 
 106       106   980     360.5 
 107       107   980     373.5 
 108       108   980     347.6 
 109       109   981     354.7 
 110       110   980     341.5 
 111       111   980     369.0 
 112       112   980     384.7 
 113       113   980     350.7 
 114       114   981     314.3 
 115       115   980     353.1 
 116       116   980     385.0 
 117       117   980     356.8 
 118       118   980     333.7 
 119       119   980     366.7 
 120       120   979     399.4 
 121       121   980     373.5 
 122       122   980     409.2 
 123       123   981     426.4 
 124       124   979     390.5 
 125       125   980     390.8 
 126       126   980     371.4 
 127       127   981     385.3 
 128       128   980     431.6 
 129       129   979     422.2 
 130       130   979     414.4 
 131       131   980     356.5 
 132       132   980     361.9 
 133       133   979     403.5 
 134       134   979     392.9 
 135       135   979     387.1 
 136       136   980     408.8 
 137       137   979     361.6 
 138       138   979     446.4 
 139       139   979     382.4 
 140       140   980     386.4 
 141       141   980     359.9 
 142       142   978     398.8 
 143       143   980     359.2 
 144       144   979     371.5 
 145       145   980     389.8 
 146       146   978     411.7 
 147       147   979     409.6 
 148       148   979     372.1 
 149       149   979     404.2 
 150       150   979     404.2 
 151       210  1000     188.7 
 152       270   997     276.5 
 153       330  1000     394.7 
 154       390   996     314.9 
 155       450   996     392.9 
 156       510   996     348.1 
 157       570   994     390.7 
 158       630   998     521.0 
 159       810   983     284.5 
 160       990   980     503.7 
 161      1170   985     394.9 
 162      1350   986     339.4 
 163      1530   981     357.8 
 164      2070   980     208.8 
 165      2691   973     335.4 
 166      3405   978     303.0 
 167      4226   978     423.7 
 168      5170   976     392.8 
 169      6256   975     398.6 
 170      7505   974     275.8 
 171      8941   977     385.9 
 172     10592   975     355.6 
 173     12491   973     429.9 
 174     14675   979     324.5 
 175     17187   975     455.7 
 176     20076   974     476.0 
 177     23398   977     379.1 
 178     27218   979     349.7 
 179     31611   980     396.6 
 180     36663   980     368.4 
 181     42473   977     294.8 
 182     49155   978     245.7 
 183     56839   980     497.3 
 184     65676   977     262.7 
 185     75839   981     262.7 
