PC/104 FIRe Fluorometer 2.0.0
 4/ 8/2025     39828
LED Color:           blue
Gain:               1800
Sample Delay (msec):    10
Number Samples:   3
STF (usec):      150
STRP (#samples):       35
STRI (usec):       60
MTF (ms):        0
MTF (#samples):     0
MTRP (#samples):        0
MTRI (usec):      100
PQLen:     4
Ambient Light Source Power: Off
PAR (uMol/m^2/s):379.39
Comment:
Depth(m):  -1.9
Temperature(C):  75.6
Battery(V):  14.08

         Time    EX   Fl-Yield 
DATA--------------------------
   0         0     0       0.0 
   1         1   156      85.5 
   2         2   817     213.0 
   3         3   953     260.2 
   4         4   969     201.6 
   5         5   972     234.2 
   6         6   973     207.3 
   7         7   973     265.8 
   8         8   977     256.9 
   9         9   974     247.8 
  10        10   975     239.0 
  11        11   976     297.8 
  12        12   977     317.0 
  13        13   977     282.8 
  14        14   977     288.6 
  15        15   977     280.8 
  16        16   978     308.1 
  17        17   980     332.3 
  18        18   977     318.0 
  19        19   978     301.3 
  20        20   979     320.7 
  21        21   980     360.5 
  22        22   979     302.3 
  23        23   979     321.4 
  24        24   979     333.3 
  25        25   980     372.8 
  26        26   980     352.0 
  27        27   978     308.5 
  28        28   980     344.6 
  29        29   980     384.0 
  30        30   980     386.7 
  31        31   980     340.5 
  32        32   980     308.2 
  33        33   980     346.3 
  34        34   981     357.5 
  35        35   981     339.4 
  36        36   980     355.1 
  37        37   981     342.8 
  38        38   980     386.4 
  39        39   981     336.4 
  40        40   980     362.9 
  41        41   981     375.1 
  42        42   980     383.3 
  43        43   982     384.2 
  44        44   981     352.4 
  45        45   980     364.3 
  46        46   981     352.0 
  47        47   982     380.9 
  48        48   982     366.3 
  49        49   981     361.2 
  50        50   981     361.5 
  51        51   980     385.7 
  52        52   983     373.7 
  53        53   981     334.0 
  54        54   981     355.8 
  55        55   981     363.6 
  56        56   982     363.5 
  57        57   982     359.1 
  58        58   981     338.1 
  59        59   981     382.6 
  60        60   980     406.8 
  61        61   983     368.6 
  62        62   981     347.9 
  63        63   981     337.1 
  64        64   981     419.6 
  65        65   982     387.3 
  66        66   982     363.9 
  67        67   981     359.5 
  68        68   981     381.6 
  69        69   981     387.4 
  70        70   983     345.2 
  71        71   980     396.6 
  72        72   981     393.8 
  73        73   981     387.0 
  74        74   982     348.3 
  75        75   981     349.6 
  76        76   980     380.6 
  77        77   980     397.6 
  78        78   982     383.9 
  79        79   982     347.9 
  80        80   980     356.5 
  81        81   981     395.9 
  82        82   980     374.5 
  83        83   982     373.4 
  84        84   980     336.4 
  85        85   980     350.7 
  86        86   980     383.0 
  87        87   982     365.2 
  88        88   981     363.6 
  89        89   980     363.3 
  90        90   981     387.7 
  91        91   981     389.1 
  92        92   982     329.9 
  93        93   980     336.7 
  94        94   980     399.0 
  95        95   980     403.1 
  96        96   982     367.6 
  97        97   981     360.5 
  98        98   980     398.6 
  99        99   980     404.8 
 100       100   980     381.0 
 101       101   981     373.8 
 102       102   980     386.1 
 103       103   980     384.4 
 104       104   980     411.6 
 105       105   982     366.6 
 106       106   980     382.3 
 107       107   980     403.1 
 108       108   980     403.1 
 109       109   981     389.4 
 110       110   980     339.8 
 111       111   980     356.8 
 112       112   980     410.9 
 113       113   980     361.2 
 114       114   981     342.5 
 115       115   980     343.9 
 116       116   980     385.7 
 117       117   980     406.1 
 118       118   980     385.0 
 119       119   980     381.6 
 120       120   979     407.2 
 121       121   980     434.7 
 122       122   980     376.2 
 123       123   981     377.5 
 124       124   979     374.9 
 125       125   980     411.9 
 126       126   980     365.0 
 127       127   981     355.1 
 128       128   980     363.9 
 129       129   979     401.4 
 130       130   979     387.1 
 131       131   980     373.1 
 132       132   980     401.4 
 133       133   979     389.5 
 134       134   979     403.5 
 135       135   979     364.0 
 136       136   980     386.7 
 137       137   979     360.9 
 138       138   979     417.1 
 139       139   979     405.2 
 140       140   980     394.9 
 141       141   980     361.9 
 142       142   978     396.0 
 143       143   980     408.8 
 144       144   979     385.8 
 145       145   980     386.1 
 146       146   978     420.9 
 147       147   979     449.1 
 148       148   979     417.1 
 149       149   979     433.8 
 150       150   979     433.8 
 151       210  1000     415.3 
 152       270   997     424.3 
 153       330  1000     278.0 
 154       390   996     402.3 
 155       450   996     378.5 
 156       510   996     413.0 
 157       570   994     320.3 
 158       630   998     298.6 
 159       810   983     281.5 
 160       990   980     368.4 
 161      1170   985     265.7 
 162      1350   986     331.6 
 163      1530   981     398.9 
 164      2070   980     288.8 
 165      2691   973     360.1 
 166      3405   978     362.3 
 167      4226   978     214.7 
 168      5170   976     181.4 
 169      6256   975     310.8 
 170      7505   974     317.6 
 171      8941   977     276.0 
 172     10592   975     324.4 
 173     12491   973     168.9 
 174     14675   979     282.9 
 175     17187   975     255.4 
 176     20076   974     294.3 
 177     23398   977     242.2 
 178     27218   979     286.3 
 179     31611   980     317.0 
 180     36663   980     276.2 
 181     42473   977     199.2 
 182     49155   978     228.7 
 183     56839   980     258.5 
 184     65676   977     283.2 
 185     75839   981     283.2 
   1         1   156     324.8 
   2         2   817     408.8 
   3         3   953     362.0 
   4         4   969     385.3 
   5         5   972     395.4 
   6         6   973     396.0 
   7         7   973     402.5 
   8         8   977     365.1 
   9         9   974     400.1 
  10        10   975     410.3 
  11        11   976     447.1 
  12        12   977     400.9 
  13        13   977     397.1 
  14        14   977     424.4 
  15        15   977     448.0 
  16        16   978     446.1 
  17        17   980     411.9 
  18        18   977     426.5 
  19        19   978     430.1 
  20        20   979     431.7 
  21        21   980     417.3 
  22        22   979     409.9 
  23        23   979     412.7 
  24        24   979     401.1 
  25        25   980     400.0 
  26        26   980     387.8 
  27        27   978     385.1 
  28        28   980     384.0 
  29        29   980     403.7 
  30        30   980     379.3 
  31        31   980     394.2 
  32        32   980     422.4 
  33        33   980     432.0 
  34        34   981     401.6 
  35        35   981     384.0 
  36        36   980     444.6 
  37        37   981     419.6 
  38        38   980     418.7 
  39        39   981     368.7 
  40        40   980     410.9 
  41        41   981     426.8 
  42        42   980     444.2 
  43        43   982     403.9 
  44        44   981     428.8 
  45        45   980     430.3 
  46        46   981     443.1 
  47        47   982     402.2 
  48        48   982     415.5 
  49        49   981     447.5 
  50        50   981     443.1 
  51        51   980     422.8 
  52        52   983     404.2 
  53        53   981     445.5 
  54        54   981     423.7 
  55        55   981     426.8 
  56        56   982     398.2 
  57        57   982     408.4 
  58        58   981     432.2 
  59        59   981     447.2 
  60        60   980     416.3 
  61        61   983     429.0 
  62        62   981     428.8 
  63        63   981     444.4 
  64        64   981     447.2 
  65        65   982     405.3 
  66        66   982     413.4 
  67        67   981     449.5 
  68        68   981     448.2 
  69        69   981     428.5 
  70        70   983     419.5 
  71        71   980     429.3 
  72        72   981     440.0 
  73        73   981     421.3 
  74        74   982     427.0 
  75        75   981     427.8 
  76        76   980     485.4 
  77        77   980     457.5 
  78        78   982     449.4 
  79        79   982     446.0 
  80        80   980     445.6 
  81        81   981     459.4 
  82        82   980     431.3 
  83        83   982     461.3 
  84        84   980     440.1 
  85        85   980     450.0 
  86        86   980     435.7 
  87        87   982     439.6 
  88        88   981     444.1 
  89        89   980     431.6 
  90        90   981     441.4 
  91        91   981     428.1 
  92        92   982     458.6 
  93        93   980     460.9 
  94        94   980     471.8 
  95        95   980     424.5 
  96        96   982     437.2 
  97        97   981     447.8 
  98        98   980     439.1 
  99        99   980     445.6 
 100       100   980     426.2 
 101       101   981     437.6 
 102       102   980     462.9 
 103       103   980     465.3 
 104       104   980     410.5 
 105       105   982     448.1 
 106       106   980     448.6 
 107       107   980     461.2 
 108       108   980     461.2 
 109       109   981     416.6 
 110       110   980     433.3 
 111       111   980     436.7 
 112       112   980     453.4 
 113       113   980     442.5 
 114       114   981     463.5 
 115       115   980     469.7 
 116       116   980     437.1 
 117       117   980     429.3 
 118       118   980     438.1 
 119       119   980     438.1 
 120       120   979     461.0 
 121       121   980     418.0 
 122       122   980     447.6 
 123       123   981     428.1 
 124       124   979     453.2 
 125       125   980     442.9 
 126       126   980     417.0 
 127       127   981     444.8 
 128       128   980     450.7 
 129       129   979     451.8 
 130       130   979     421.2 
 131       131   980     435.7 
 132       132   980     441.8 
 133       133   979     446.4 
 134       134   979     419.1 
 135       135   979     450.5 
 136       136   980     417.7 
 137       137   979     459.7 
 138       138   979     438.5 
 139       139   979     443.6 
 140       140   980     429.9 
 141       141   980     449.0 
 142       142   978     428.4 
 143       143   980     421.1 
 144       144   979     417.8 
 145       145   980     430.3 
 146       146   978     452.3 
 147       147   979     417.4 
 148       148   979     422.2 
 149       149   979     416.8 
 150       150   979     416.8 
 151       210  1000     429.0 
 152       270   997     454.7 
 153       330  1000     474.0 
 154       390   996     429.0 
 155       450   996     436.4 
 156       510   996     443.1 
 157       570   994     490.6 
 158       630   998     449.6 
 159       810   983     484.6 
 160       990   980     426.2 
 161      1170   985     420.6 
 162      1350   986     482.4 
 163      1530   981     406.0 
 164      2070   980     430.6 
 165      2691   973     535.8 
 166      3405   978     463.2 
 167      4226   978     378.0 
 168      5170   976     408.8 
 169      6256   975     382.6 
 170      7505   974     413.4 
 171      8941   977     378.4 
 172     10592   975     392.8 
 173     12491   973     396.7 
 174     14675   979     374.5 
 175     17187   975     367.2 
 176     20076   974     336.4 
 177     23398   977     336.1 
 178     27218   979     335.7 
 179     31611   980     245.9 
 180     36663   980     370.4 
 181     42473   977     234.0 
 182     49155   978     269.9 
 183     56839   980     322.4 
 184     65676   977     342.5 
 185     75839   981     342.5 
