PC/104 FIRe Fluorometer 2.0.0
 4/ 8/2025     29501
LED Color:           blue
Gain:               2000
Sample Delay (msec):    10
Number Samples:   3
STF (usec):      150
STRP (#samples):       35
STRI (usec):       60
MTF (ms):        0
MTF (#samples):     0
MTRP (#samples):        0
MTRI (usec):      100
PQLen:     4
Ambient Light Source Power: Off
PAR (uMol/m^2/s):531.71
Comment:
Depth(m):   2.8
Temperature(C):  52.5
Battery(V):  15.98

         Time    EX   Fl-Yield 
DATA--------------------------
   0         0     0       0.0 
   1         1   156     414.5 
   2         2   817     350.9 
   3         3   953     336.5 
   4         4   969     355.7 
   5         5   972     359.4 
   6         6   973     370.7 
   7         7   973     340.5 
   8         8   977     304.7 
   9         9   974     409.3 
  10        10   975     455.7 
  11        11   976     443.0 
  12        12   977     392.0 
  13        13   977     399.2 
  14        14   977     481.4 
  15        15   977     466.1 
  16        16   978     463.5 
  17        17   980     401.4 
  18        18   977     436.7 
  19        19   978     542.3 
  20        20   979     496.1 
  21        21   980     462.6 
  22        22   979     500.9 
  23        23   979     548.5 
  24        24   979     445.7 
  25        25   980     460.5 
  26        26   980     501.4 
  27        27   978     465.2 
  28        28   980     476.9 
  29        29   980     508.5 
  30        30   980     471.4 
  31        31   980     482.3 
  32        32   980     569.0 
  33        33   980     504.4 
  34        34   981     496.4 
  35        35   981     502.2 
  36        36   980     512.9 
  37        37   981     577.0 
  38        38   980     494.6 
  39        39   981     500.8 
  40        40   980     488.1 
  41        41   981     559.0 
  42        42   980     560.5 
  43        43   982     533.6 
  44        44   981     543.7 
  45        45   980     579.3 
  46        46   981     614.3 
  47        47   982     566.5 
  48        48   982     511.5 
  49        49   981     587.8 
  50        50   981     592.6 
  51        51   980     603.7 
  52        52   983     541.5 
  53        53   981     537.5 
  54        54   981     519.5 
  55        55   981     563.4 
  56        56   982     540.7 
  57        57   982     561.1 
  58        58   981     546.7 
  59        59   981     582.4 
  60        60   980     536.1 
  61        61   983     520.9 
  62        62   981     520.9 
  63        63   981     553.9 
  64        64   981     574.2 
  65        65   982     530.9 
  66        66   982     538.0 
  67        67   981     538.6 
  68        68   981     582.1 
  69        69   981     534.5 
  70        70   983     532.0 
  71        71   980     572.8 
  72        72   981     572.9 
  73        73   981     550.8 
  74        74   982     523.4 
  75        75   981     544.3 
  76        76   980     536.4 
  77        77   980     610.2 
  78        78   982     565.5 
  79        79   982     510.2 
  80        80   980     527.9 
  81        81   981     574.9 
  82        82   980     594.9 
  83        83   982     508.5 
  84        84   980     524.1 
  85        85   980     576.2 
  86        86   980     610.9 
  87        87   982     517.3 
  88        88   981     504.2 
  89        89   980     474.8 
  90        90   981     595.0 
  91        91   981     585.8 
  92        92   982     558.4 
  93        93   980     489.1 
  94        94   980     548.6 
  95        95   980     517.7 
  96        96   982     579.8 
  97        97   981     490.0 
  98        98   980     533.7 
  99        99   980     551.4 
 100       100   980     506.5 
 101       101   981     493.0 
 102       102   980     499.3 
 103       103   980     502.0 
 104       104   980     639.1 
 105       105   982     529.2 
 106       106   980     532.7 
 107       107   980     471.4 
 108       108   980     586.7 
 109       109   981     552.2 
 110       110   980     497.3 
 111       111   980     490.1 
 112       112   980     563.6 
 113       113   980     558.2 
 114       114   981     524.3 
 115       115   980     528.9 
 116       116   980     525.5 
 117       117   980     532.3 
 118       118   980     569.7 
 119       119   980     479.9 
 120       120   979     562.1 
 121       121   980     590.8 
 122       122   980     595.6 
 123       123   981     523.6 
 124       124   979     547.2 
 125       125   980     539.1 
 126       126   980     606.5 
 127       127   981     584.4 
 128       128   980     503.1 
 129       129   979     589.0 
 130       130   979     591.4 
 131       131   980     594.2 
 132       132   980     552.7 
 133       133   979     543.1 
 134       134   979     562.8 
 135       135   979     609.5 
 136       136   980     551.4 
 137       137   979     545.8 
 138       138   979     526.4 
 139       139   979     631.6 
 140       140   980     589.8 
 141       141   980     542.9 
 142       142   978     525.2 
 143       143   980     574.1 
 144       144   979     615.3 
 145       145   980     586.7 
 146       146   978     568.8 
 147       147   979     547.8 
 148       148   979     610.5 
 149       149   979     593.1 
 150       150   979     593.1 
 151       210  1000     446.3 
 152       270   997     555.3 
 153       330  1000     568.0 
 154       390   996     429.0 
 155       450   996     586.3 
 156       510   996     438.1 
 157       570   994     456.1 
 158       630   998     476.0 
 159       810   983     476.8 
 160       990   980     565.3 
 161      1170   985     402.0 
 162      1350   986     477.0 
 163      1530   981     453.3 
 164      2070   980     421.1 
 165      2691   973     311.1 
 166      3405   978     456.0 
 167      4226   978     375.3 
 168      5170   976     300.9 
 169      6256   975     452.3 
 170      7505   974     337.8 
 171      8941   977     536.3 
 172     10592   975     436.9 
 173     12491   973     375.8 
 174     14675   979     349.7 
 175     17187   975     351.8 
 176     20076   974     321.7 
 177     23398   977     385.9 
 178     27218   979     431.1 
 179     31611   980     465.0 
 180     36663   980     423.1 
 181     42473   977     396.1 
 182     49155   978     383.4 
 183     56839   980     303.7 
 184     65676   977     633.6 
 185     75839   981     633.6 
   1         1   156     880.3 
   2         2   817     594.5 
   3         3   953     532.7 
   4         4   969     626.1 
   5         5   972     645.7 
   6         6   973     555.7 
   7         7   973     628.0 
   8         8   977     567.7 
   9         9   974     655.7 
  10        10   975     622.9 
  11        11   976     672.1 
  12        12   977     694.3 
  13        13   977     720.6 
  14        14   977     683.7 
  15        15   977     714.8 
  16        16   978     718.8 
  17        17   980     730.3 
  18        18   977     666.0 
  19        19   978     631.2 
  20        20   979     654.7 
  21        21   980     620.4 
  22        22   979     658.2 
  23        23   979     643.9 
  24        24   979     635.3 
  25        25   980     546.6 
  26        26   980     620.7 
  27        27   978     608.0 
  28        28   980     676.2 
  29        29   980     558.8 
  30        30   980     592.2 
  31        31   980     641.8 
  32        32   980     621.1 
  33        33   980     603.7 
  34        34   981     601.4 
  35        35   981     580.7 
  36        36   980     625.2 
  37        37   981     691.8 
  38        38   980     617.7 
  39        39   981     557.9 
  40        40   980     629.9 
  41        41   981     626.2 
  42        42   980     587.1 
  43        43   982     598.1 
  44        44   981     591.9 
  45        45   980     657.5 
  46        46   981     595.0 
  47        47   982     598.4 
  48        48   982     579.8 
  49        49   981     637.8 
  50        50   981     598.7 
  51        51   980     618.4 
  52        52   983     593.4 
  53        53   981     597.7 
  54        54   981     638.5 
  55        55   981     595.0 
  56        56   982     597.4 
  57        57   982     628.0 
  58        58   981     627.3 
  59        59   981     657.8 
  60        60   980     611.6 
  61        61   983     536.1 
  62        62   981     593.6 
  63        63   981     708.5 
  64        64   981     637.1 
  65        65   982     561.4 
  66        66   982     540.7 
  67        67   981     660.9 
  68        68   981     641.2 
  69        69   981     556.6 
  70        70   983     602.6 
  71        71   980     553.7 
  72        72   981     604.8 
  73        73   981     577.0 
  74        74   982     545.1 
  75        75   981     572.5 
  76        76   980     587.1 
  77        77   980     575.2 
  78        78   982     554.3 
  79        79   982     545.1 
  80        80   980     572.1 
  81        81   981     565.7 
  82        82   980     554.4 
  83        83   982     513.6 
  84        84   980     511.2 
  85        85   980     598.0 
  86        86   980     592.2 
  87        87   982     547.5 
  88        88   981     574.9 
  89        89   980     588.4 
  90        90   981     604.1 
  91        91   981     501.9 
  92        92   982     579.8 
  93        93   980     582.7 
  94        94   980     618.0 
  95        95   980     531.3 
  96        96   982     560.8 
  97        97   981     522.3 
  98        98   980     557.8 
  99        99   980     616.0 
 100       100   980     549.3 
 101       101   981     512.1 
 102       102   980     604.1 
 103       103   980     606.8 
 104       104   980     585.0 
 105       105   982     575.0 
 106       106   980     545.9 
 107       107   980     625.2 
 108       108   980     622.8 
 109       109   981     607.5 
 110       110   980     560.5 
 111       111   980     601.4 
 112       112   980     616.0 
 113       113   980     598.6 
 114       114   981     548.8 
 115       115   980     618.0 
 116       116   980     618.4 
 117       117   980     613.6 
 118       118   980     518.7 
 119       119   980     549.7 
 120       120   979     602.3 
 121       121   980     666.7 
 122       122   980     570.1 
 123       123   981     603.5 
 124       124   979     579.5 
 125       125   980     663.9 
 126       126   980     677.9 
 127       127   981     627.9 
 128       128   980     592.5 
 129       129   979     627.9 
 130       130   979     685.4 
 131       131   980     673.5 
 132       132   980     678.6 
 133       133   979     685.1 
 134       134   979     667.3 
 135       135   979     690.2 
 136       136   980     621.1 
 137       137   979     654.7 
 138       138   979     628.2 
 139       139   979     724.5 
 140       140   980     661.6 
 141       141   980     645.2 
 142       142   978     701.1 
 143       143   980     672.1 
 144       144   979     647.9 
 145       145   980     696.3 
 146       146   978     676.2 
 147       147   979     628.5 
 148       148   979     665.6 
 149       149   979     674.5 
 150       150   979     674.5 
 151       210  1000     380.7 
 152       270   997     673.4 
 153       330  1000     531.7 
 154       390   996     635.2 
 155       450   996     597.7 
 156       510   996     700.1 
 157       570   994     619.7 
 158       630   998     620.9 
 159       810   983     635.5 
 160       990   980     552.0 
 161      1170   985     534.0 
 162      1350   986     734.3 
 163      1530   981     480.8 
 164      2070   980     546.3 
 165      2691   973     678.0 
 166      3405   978     665.3 
 167      4226   978     481.9 
 168      5170   976     606.2 
 169      6256   975     608.2 
 170      7505   974     630.7 
 171      8941   977     724.3 
 172     10592   975     442.4 
 173     12491   973     416.9 
 174     14675   979     417.1 
 175     17187   975     588.4 
 176     20076   974     558.9 
 177     23398   977     681.7 
 178     27218   979     380.0 
 179     31611   980     549.7 
 180     36663   980     483.3 
 181     42473   977     343.9 
 182     49155   978     502.0 
 183     56839   980     509.2 
 184     65676   977     485.2 
 185     75839   981     485.2 
