PC/104 FIRe Fluorometer 2.0.0
 4/ 8/2025     29533
LED Color:           blue
Gain:               1900
Sample Delay (msec):    10
Number Samples:   3
STF (usec):      150
STRP (#samples):       35
STRI (usec):       60
MTF (ms):        0
MTF (#samples):     0
MTRP (#samples):        0
MTRI (usec):      100
PQLen:     4
Ambient Light Source Power: Off
PAR (uMol/m^2/s):900.00
Comment:
Depth(m):   2.9
Temperature(C):  52.5
Battery(V):  15.97

         Time    EX   Fl-Yield 
DATA--------------------------
   0         0     0       0.0 
   1         1   156     106.8 
   2         2   817     369.2 
   3         3   953     331.6 
   4         4   969     314.1 
   5         5   972     368.3 
   6         6   973     342.2 
   7         7   973     344.0 
   8         8   977     329.9 
   9         9   974     321.7 
  10        10   975     409.9 
  11        11   976     355.9 
  12        12   977     346.0 
  13        13   977     319.3 
  14        14   977     395.8 
  15        15   977     410.4 
  16        16   978     397.8 
  17        17   980     363.3 
  18        18   977     394.1 
  19        19   978     390.9 
  20        20   979     390.9 
  21        21   980     393.2 
  22        22   979     387.1 
  23        23   979     380.3 
  24        24   979     425.3 
  25        25   980     413.9 
  26        26   980     429.9 
  27        27   978     376.3 
  28        28   980     407.1 
  29        29   980     415.0 
  30        30   980     364.3 
  31        31   980     402.4 
  32        32   980     408.5 
  33        33   980     420.1 
  34        34   981     423.4 
  35        35   981     385.3 
  36        36   980     421.1 
  37        37   981     441.4 
  38        38   980     441.5 
  39        39   981     434.9 
  40        40   980     425.9 
  41        41   981     500.5 
  42        42   980     456.8 
  43        43   982     420.6 
  44        44   981     406.0 
  45        45   980     458.5 
  46        46   981     483.9 
  47        47   982     464.0 
  48        48   982     436.5 
  49        49   981     512.7 
  50        50   981     496.1 
  51        51   980     453.1 
  52        52   983     441.8 
  53        53   981     425.8 
  54        54   981     453.6 
  55        55   981     480.1 
  56        56   982     448.1 
  57        57   982     462.0 
  58        58   981     451.9 
  59        59   981     478.1 
  60        60   980     453.1 
  61        61   983     426.9 
  62        62   981     465.2 
  63        63   981     458.0 
  64        64   981     461.4 
  65        65   982     479.3 
  66        66   982     473.9 
  67        67   981     489.3 
  68        68   981     508.0 
  69        69   981     508.7 
  70        70   983     471.7 
  71        71   980     439.8 
  72        72   981     514.8 
  73        73   981     529.7 
  74        74   982     472.8 
  75        75   981     481.8 
  76        76   980     443.9 
  77        77   980     507.1 
  78        78   982     500.3 
  79        79   982     446.4 
  80        80   980     488.4 
  81        81   981     501.2 
  82        82   980     516.7 
  83        83   982     471.1 
  84        84   980     493.2 
  85        85   980     529.6 
  86        86   980     533.3 
  87        87   982     452.5 
  88        88   981     461.8 
  89        89   980     519.4 
  90        90   981     522.6 
  91        91   981     479.1 
  92        92   982     471.5 
  93        93   980     452.7 
  94        94   980     518.7 
  95        95   980     516.0 
  96        96   982     519.3 
  97        97   981     501.5 
  98        98   980     482.0 
  99        99   980     512.6 
 100       100   980     520.4 
 101       101   981     505.3 
 102       102   980     482.0 
 103       103   980     516.7 
 104       104   980     527.9 
 105       105   982     525.5 
 106       106   980     485.4 
 107       107   980     465.6 
 108       108   980     517.3 
 109       109   981     556.2 
 110       110   980     475.5 
 111       111   980     495.6 
 112       112   980     515.0 
 113       113   980     512.2 
 114       114   981     491.3 
 115       115   980     458.8 
 116       116   980     459.2 
 117       117   980     571.8 
 118       118   980     507.8 
 119       119   980     505.8 
 120       120   979     491.0 
 121       121   980     545.2 
 122       122   980     501.4 
 123       123   981     505.6 
 124       124   979     496.4 
 125       125   980     500.3 
 126       126   980     531.3 
 127       127   981     509.3 
 128       128   980     470.1 
 129       129   979     459.3 
 130       130   979     515.5 
 131       131   980     549.7 
 132       132   980     490.1 
 133       133   979     464.1 
 134       134   979     464.4 
 135       135   979     528.4 
 136       136   980     460.9 
 137       137   979     467.1 
 138       138   979     507.7 
 139       139   979     501.9 
 140       140   980     538.1 
 141       141   980     478.9 
 142       142   978     478.9 
 143       143   980     436.1 
 144       144   979     518.9 
 145       145   980     483.0 
 146       146   978     483.6 
 147       147   979     456.9 
 148       148   979     471.6 
 149       149   979     487.2 
 150       150   979     487.2 
 151       210  1000     535.3 
 152       270   997     429.0 
 153       330  1000     588.3 
 154       390   996     335.7 
 155       450   996     552.5 
 156       510   996     347.1 
 157       570   994     422.2 
 158       630   998     415.5 
 159       810   983     485.6 
 160       990   980     443.9 
 161      1170   985     308.0 
 162      1350   986     470.9 
 163      1530   981     437.3 
 164      2070   980     440.8 
 165      2691   973     311.4 
 166      3405   978     306.4 
 167      4226   978     365.7 
 168      5170   976     375.7 
 169      6256   975     403.8 
 170      7505   974     430.9 
 171      8941   977     394.4 
 172     10592   975     396.2 
 173     12491   973     300.1 
 174     14675   979     325.2 
 175     17187   975     270.1 
 176     20076   974     281.7 
 177     23398   977     316.6 
 178     27218   979     345.6 
 179     31611   980     347.3 
 180     36663   980     319.7 
 181     42473   977     432.3 
 182     49155   978     351.4 
 183     56839   980     407.5 
 184     65676   977     248.4 
 185     75839   981     248.4 
   1         1   156     203.0 
   2         2   817     619.3 
   3         3   953     643.2 
   4         4   969     621.6 
   5         5   972     624.1 
   6         6   973     614.6 
   7         7   973     638.6 
   8         8   977     656.1 
   9         9   974     732.0 
  10        10   975     696.8 
  11        11   976     724.0 
  12        12   977     764.2 
  13        13   977     790.5 
  14        14   977     768.3 
  15        15   977     730.5 
  16        16   978     793.8 
  17        17   980     755.4 
  18        18   977     720.9 
  19        19   978     706.2 
  20        20   979     732.0 
  21        21   980     747.3 
  22        22   979     730.7 
  23        23   979     716.7 
  24        24   979     658.5 
  25        25   980     684.0 
  26        26   980     721.1 
  27        27   978     722.9 
  28        28   980     687.8 
  29        29   980     673.8 
  30        30   980     722.1 
  31        31   980     711.9 
  32        32   980     700.3 
  33        33   980     690.5 
  34        34   981     708.5 
  35        35   981     724.8 
  36        36   980     732.3 
  37        37   981     716.6 
  38        38   980     709.5 
  39        39   981     764.5 
  40        40   980     724.1 
  41        41   981     756.7 
  42        42   980     748.3 
  43        43   982     752.2 
  44        44   981     786.3 
  45        45   980     765.6 
  46        46   981     748.9 
  47        47   982     705.7 
  48        48   982     753.9 
  49        49   981     739.4 
  50        50   981     759.1 
  51        51   980     734.4 
  52        52   983     783.0 
  53        53   981     781.5 
  54        54   981     788.7 
  55        55   981     759.1 
  56        56   982     738.6 
  57        57   982     779.4 
  58        58   981     745.5 
  59        59   981     755.7 
  60        60   980     753.1 
  61        61   983     729.1 
  62        62   981     806.3 
  63        63   981     710.8 
  64        64   981     766.6 
  65        65   982     754.2 
  66        66   982     774.3 
  67        67   981     723.1 
  68        68   981     692.8 
  69        69   981     705.4 
  70        70   983     723.3 
  71        71   980     749.7 
  72        72   981     703.4 
  73        73   981     708.8 
  74        74   982     721.7 
  75        75   981     725.5 
  76        76   980     709.5 
  77        77   980     706.5 
  78        78   982     679.6 
  79        79   982     717.6 
  80        80   980     745.9 
  81        81   981     730.5 
  82        82   980     729.6 
  83        83   982     705.7 
  84        84   980     760.2 
  85        85   980     720.7 
  86        86   980     715.6 
  87        87   982     685.0 
  88        88   981     705.7 
  89        89   980     700.0 
  90        90   981     699.6 
  91        91   981     637.4 
  92        92   982     679.6 
  93        93   980     709.9 
  94        94   980     721.8 
  95        95   980     709.5 
  96        96   982     675.8 
  97        97   981     723.1 
  98        98   980     753.4 
  99        99   980     664.6 
 100       100   980     734.7 
 101       101   981     720.4 
 102       102   980     705.4 
 103       103   980     685.7 
 104       104   980     682.0 
 105       105   982     671.1 
 106       106   980     705.4 
 107       107   980     712.9 
 108       108   980     699.3 
 109       109   981     705.7 
 110       110   980     714.6 
 111       111   980     725.9 
 112       112   980     666.0 
 113       113   980     742.9 
 114       114   981     670.7 
 115       115   980     694.6 
 116       116   980     713.9 
 117       117   980     697.3 
 118       118   980     674.8 
 119       119   980     651.0 
 120       120   979     686.1 
 121       121   980     681.0 
 122       122   980     671.1 
 123       123   981     672.4 
 124       124   979     687.1 
 125       125   980     656.8 
 126       126   980     653.1 
 127       127   981     632.0 
 128       128   980     670.7 
 129       129   979     734.1 
 130       130   979     693.2 
 131       131   980     675.2 
 132       132   980     653.7 
 133       133   979     710.9 
 134       134   979     695.6 
 135       135   979     665.6 
 136       136   980     677.9 
 137       137   979     697.7 
 138       138   979     707.5 
 139       139   979     679.6 
 140       140   980     688.1 
 141       141   980     711.2 
 142       142   978     745.4 
 143       143   980     695.9 
 144       144   979     712.6 
 145       145   980     693.9 
 146       146   978     742.7 
 147       147   979     762.7 
 148       148   979     695.9 
 149       149   979     687.1 
 150       150   979     687.1 
 151       210  1000     710.3 
 152       270   997     756.9 
 153       330  1000     601.0 
 154       390   996     732.9 
 155       450   996     573.3 
 156       510   996     692.8 
 157       570   994     602.6 
 158       630   998     710.8 
 159       810   983     695.2 
 160       990   980     600.3 
 161      1170   985     747.9 
 162      1350   986     653.5 
 163      1530   981     784.9 
 164      2070   980     698.0 
 165      2691   973     612.2 
 166      3405   978     607.4 
 167      4226   978     658.5 
 168      5170   976     633.5 
 169      6256   975     627.0 
 170      7505   974     596.9 
 171      8941   977     643.8 
 172     10592   975     593.8 
 173     12491   973     630.4 
 174     14675   979     552.6 
 175     17187   975     609.9 
 176     20076   974     593.4 
 177     23398   977     585.5 
 178     27218   979     515.8 
 179     31611   980     579.6 
 180     36663   980     454.8 
 181     42473   977     397.8 
 182     49155   978     539.5 
 183     56839   980     528.2 
 184     65676   977     385.9 
 185     75839   981     385.9 
