PC/104 FIRe Fluorometer 2.0.0
 4/ 8/2025     29693
LED Color:           blue
Gain:               1900
Sample Delay (msec):    10
Number Samples:   3
STF (usec):      150
STRP (#samples):       35
STRI (usec):       60
MTF (ms):        0
MTF (#samples):     0
MTRP (#samples):        0
MTRI (usec):      100
PQLen:     4
Ambient Light Source Power: Off
PAR (uMol/m^2/s):722.27
Comment:
Depth(m):   2.6
Temperature(C):  53.9
Battery(V):  15.94

         Time    EX   Fl-Yield 
DATA--------------------------
   0         0     0       0.0 
   1         1   156     399.6 
   2         2   817     318.2 
   3         3   953     428.8 
   4         4   969     429.0 
   5         5   972     384.1 
   6         6   973     386.8 
   7         7   973     432.0 
   8         8   977     446.3 
   9         9   974     455.9 
  10        10   975     422.6 
  11        11   976     405.4 
  12        12   977     435.7 
  13        13   977     502.6 
  14        14   977     440.8 
  15        15   977     442.9 
  16        16   978     448.2 
  17        17   980     528.2 
  18        18   977     484.1 
  19        19   978     443.4 
  20        20   979     443.0 
  21        21   980     510.9 
  22        22   979     554.3 
  23        23   979     518.2 
  24        24   979     490.6 
  25        25   980     470.1 
  26        26   980     574.1 
  27        27   978     566.5 
  28        28   980     577.2 
  29        29   980     513.3 
  30        30   980     570.7 
  31        31   980     600.3 
  32        32   980     601.7 
  33        33   980     596.3 
  34        34   981     561.3 
  35        35   981     622.5 
  36        36   980     642.9 
  37        37   981     562.4 
  38        38   980     600.0 
  39        39   981     591.9 
  40        40   980     623.8 
  41        41   981     629.6 
  42        42   980     597.6 
  43        43   982     592.3 
  44        44   981     669.4 
  45        45   980     647.6 
  46        46   981     604.8 
  47        47   982     609.3 
  48        48   982     632.4 
  49        49   981     667.0 
  50        50   981     629.6 
  51        51   980     606.5 
  52        52   983     606.3 
  53        53   981     641.5 
  54        54   981     612.6 
  55        55   981     638.5 
  56        56   982     572.6 
  57        57   982     614.4 
  58        58   981     672.1 
  59        59   981     672.8 
  60        60   980     613.6 
  61        61   983     651.4 
  62        62   981     659.9 
  63        63   981     654.4 
  64        64   981     621.1 
  65        65   982     658.9 
  66        66   982     634.8 
  67        67   981     667.0 
  68        68   981     606.9 
  69        69   981     596.3 
  70        70   983     612.4 
  71        71   980     623.1 
  72        72   981     607.2 
  73        73   981     591.9 
  74        74   982     655.8 
  75        75   981     614.7 
  76        76   980     633.7 
  77        77   980     616.7 
  78        78   982     601.5 
  79        79   982     623.9 
  80        80   980     668.4 
  81        81   981     596.7 
  82        82   980     610.5 
  83        83   982     611.7 
  84        84   980     616.0 
  85        85   980     605.8 
  86        86   980     653.1 
  87        87   982     631.7 
  88        88   981     617.1 
  89        89   980     648.3 
  90        90   981     618.4 
  91        91   981     642.5 
  92        92   982     638.2 
  93        93   980     647.3 
  94        94   980     675.9 
  95        95   980     608.2 
  96        96   982     597.1 
  97        97   981     624.9 
  98        98   980     668.7 
  99        99   980     641.2 
 100       100   980     607.5 
 101       101   981     607.9 
 102       102   980     641.2 
 103       103   980     644.2 
 104       104   980     627.2 
 105       105   982     618.5 
 106       106   980     633.0 
 107       107   980     618.4 
 108       108   980     605.1 
 109       109   981     619.4 
 110       110   980     624.5 
 111       111   980     626.9 
 112       112   980     631.6 
 113       113   980     603.1 
 114       114   981     607.5 
 115       115   980     616.3 
 116       116   980     665.0 
 117       117   980     626.5 
 118       118   980     589.5 
 119       119   980     608.8 
 120       120   979     603.7 
 121       121   980     687.4 
 122       122   980     654.8 
 123       123   981     610.6 
 124       124   979     631.3 
 125       125   980     605.8 
 126       126   980     672.8 
 127       127   981     643.9 
 128       128   980     654.1 
 129       129   979     678.6 
 130       130   979     625.8 
 131       131   980     610.9 
 132       132   980     632.7 
 133       133   979     687.1 
 134       134   979     624.1 
 135       135   979     661.2 
 136       136   980     592.2 
 137       137   979     657.1 
 138       138   979     646.6 
 139       139   979     655.8 
 140       140   980     635.4 
 141       141   980     636.7 
 142       142   978     644.9 
 143       143   980     652.7 
 144       144   979     661.2 
 145       145   980     621.1 
 146       146   978     672.5 
 147       147   979     672.8 
 148       148   979     663.9 
 149       149   979     704.5 
 150       150   979     704.5 
 151       210  1000     593.3 
 152       270   997     711.5 
 153       330  1000     511.0 
 154       390   996     665.7 
 155       450   996     529.8 
 156       510   996     604.8 
 157       570   994     535.2 
 158       630   998     523.7 
 159       810   983     534.4 
 160       990   980     481.0 
 161      1170   985     381.0 
 162      1350   986     532.8 
 163      1530   981     435.9 
 164      2070   980     305.8 
 165      2691   973     363.1 
 166      3405   978     551.1 
 167      4226   978     391.6 
 168      5170   976     417.3 
 169      6256   975     436.9 
 170      7505   974     414.1 
 171      8941   977     334.0 
 172     10592   975     327.2 
 173     12491   973     367.6 
 174     14675   979     388.5 
 175     17187   975     445.1 
 176     20076   974     476.7 
 177     23398   977     462.3 
 178     27218   979     496.4 
 179     31611   980     380.6 
 180     36663   980     536.1 
 181     42473   977     474.6 
 182     49155   978     421.3 
 183     56839   980     457.8 
 184     65676   977     366.1 
 185     75839   981     366.1 
   1         1   156     585.5 
   2         2   817     805.8 
   3         3   953     803.8 
   4         4   969     813.2 
   5         5   972     772.6 
   6         6   973     774.2 
   7         7   973     784.2 
   8         8   977     808.6 
   9         9   974     843.6 
  10        10   975     842.7 
  11        11   976     842.6 
  12        12   977     848.5 
  13        13   977     859.4 
  14        14   977     892.2 
  15        15   977     873.1 
  16        16   978     894.0 
  17        17   980     870.4 
  18        18   977     831.1 
  19        19   978     824.5 
  20        20   979     854.3 
  21        21   980     816.3 
  22        22   979     795.7 
  23        23   979     796.4 
  24        24   979     810.4 
  25        25   980     842.2 
  26        26   980     820.4 
  27        27   978     814.9 
  28        28   980     793.2 
  29        29   980     834.7 
  30        30   980     840.8 
  31        31   980     814.3 
  32        32   980     813.3 
  33        33   980     809.2 
  34        34   981     817.5 
  35        35   981     789.0 
  36        36   980     763.6 
  37        37   981     810.7 
  38        38   980     819.4 
  39        39   981     837.6 
  40        40   980     842.2 
  41        41   981     810.4 
  42        42   980     796.6 
  43        43   982     828.6 
  44        44   981     864.1 
  45        45   980     821.4 
  46        46   981     854.9 
  47        47   982     867.6 
  48        48   982     830.3 
  49        49   981     849.5 
  50        50   981     802.2 
  51        51   980     839.1 
  52        52   983     847.4 
  53        53   981     825.7 
  54        54   981     835.9 
  55        55   981     869.5 
  56        56   982     852.7 
  57        57   982     875.4 
  58        58   981     856.3 
  59        59   981     878.7 
  60        60   980     848.3 
  61        61   983     892.5 
  62        62   981     862.7 
  63        63   981     834.2 
  64        64   981     871.2 
  65        65   982     829.9 
  66        66   982     847.9 
  67        67   981     827.0 
  68        68   981     852.2 
  69        69   981     854.2 
  70        70   983     851.1 
  71        71   980     837.4 
  72        72   981     849.5 
  73        73   981     855.6 
  74        74   982     807.5 
  75        75   981     849.5 
  76        76   980     876.5 
  77        77   980     831.6 
  78        78   982     873.4 
  79        79   982     851.7 
  80        80   980     877.2 
  81        81   981     846.8 
  82        82   980     881.3 
  83        83   982     853.4 
  84        84   980     911.2 
  85        85   980     882.7 
  86        86   980     814.6 
  87        87   982     875.4 
  88        88   981     859.0 
  89        89   980     878.6 
  90        90   981     886.9 
  91        91   981     896.4 
  92        92   982     854.0 
  93        93   980     904.4 
  94        94   980     878.6 
  95        95   980     919.0 
  96        96   982     891.0 
  97        97   981     886.9 
  98        98   980     851.7 
  99        99   980     868.7 
 100       100   980     879.6 
 101       101   981     848.8 
 102       102   980     917.7 
 103       103   980     846.9 
 104       104   980     895.6 
 105       105   982     870.0 
 106       106   980     905.1 
 107       107   980     924.8 
 108       108   980     882.3 
 109       109   981     861.7 
 110       110   980     882.3 
 111       111   980     858.5 
 112       112   980     866.3 
 113       113   980     860.9 
 114       114   981     824.0 
 115       115   980     884.4 
 116       116   980     844.9 
 117       117   980     825.9 
 118       118   980     863.9 
 119       119   980     825.5 
 120       120   979     869.3 
 121       121   980     843.9 
 122       122   980     844.6 
 123       123   981     851.2 
 124       124   979     851.5 
 125       125   980     853.7 
 126       126   980     820.1 
 127       127   981     860.3 
 128       128   980     859.9 
 129       129   979     825.7 
 130       130   979     862.4 
 131       131   980     856.1 
 132       132   980     860.2 
 133       133   979     861.8 
 134       134   979     835.9 
 135       135   979     818.5 
 136       136   980     851.7 
 137       137   979     884.2 
 138       138   979     883.6 
 139       139   979     827.4 
 140       140   980     844.6 
 141       141   980     842.5 
 142       142   978     848.7 
 143       143   980     823.1 
 144       144   979     816.5 
 145       145   980     838.1 
 146       146   978     852.8 
 147       147   979     859.0 
 148       148   979     830.1 
 149       149   979     855.3 
 150       150   979     855.3 
 151       210  1000     914.0 
 152       270   997     876.3 
 153       330  1000     915.0 
 154       390   996     787.8 
 155       450   996     884.5 
 156       510   996     900.3 
 157       570   994     832.7 
 158       630   998     853.4 
 159       810   983     874.9 
 160       990   980     810.9 
 161      1170   985     829.8 
 162      1350   986     795.1 
 163      1530   981     866.5 
 164      2070   980     838.1 
 165      2691   973     774.6 
 166      3405   978     805.0 
 167      4226   978     878.7 
 168      5170   976     804.0 
 169      6256   975     749.4 
 170      7505   974     772.4 
 171      8941   977     688.2 
 172     10592   975     804.4 
 173     12491   973     724.9 
 174     14675   979     816.5 
 175     17187   975     697.8 
 176     20076   974     815.9 
 177     23398   977     670.8 
 178     27218   979     663.9 
 179     31611   980     620.7 
 180     36663   980     653.1 
 181     42473   977     574.2 
 182     49155   978     552.5 
 183     56839   980     574.8 
 184     65676   977     567.7 
 185     75839   981     567.7 
