PC/104 FIRe Fluorometer 2.0.0
 4/ 8/2025     28249
LED Color:           blue
Gain:               2000
Sample Delay (msec):    10
Number Samples:   3
STF (usec):      150
STRP (#samples):       35
STRI (usec):       60
MTF (ms):        0
MTF (#samples):     0
MTRP (#samples):        0
MTRI (usec):      100
PQLen:     4
Ambient Light Source Power: Off
PAR (uMol/m^2/s):630.00
Comment:
Depth(m):   3.9
Temperature(C):  46.4
Battery(V):  16.19

         Time    EX   Fl-Yield 
DATA--------------------------
   0         0     0       0.0 
   1         1   156      76.9 
   2         2   817      91.4 
   3         3   953      96.2 
   4         4   969     129.3 
   5         5   972     103.6 
   6         6   973      92.5 
   7         7   973      95.6 
   8         8   977     129.6 
   9         9   974     142.0 
  10        10   975     158.3 
  11        11   976     118.5 
  12        12   977      73.4 
  13        13   977     104.7 
  14        14   977     154.2 
  15        15   977     127.3 
  16        16   978     107.7 
  17        17   980     155.4 
  18        18   977     112.6 
  19        19   978     116.9 
  20        20   979     104.9 
  21        21   980     134.4 
  22        22   979     129.4 
  23        23   979     145.4 
  24        24   979     186.6 
  25        25   980     137.4 
  26        26   980     208.5 
  27        27   978     108.7 
  28        28   980     142.9 
  29        29   980     149.7 
  30        30   980     132.0 
  31        31   980     176.2 
  32        32   980     100.7 
  33        33   980     143.9 
  34        34   981     174.3 
  35        35   981     215.1 
  36        36   980     144.2 
  37        37   981     144.8 
  38        38   980     153.4 
  39        39   981     178.4 
  40        40   980     126.9 
  41        41   981     152.2 
  42        42   980     147.3 
  43        43   982     156.1 
  44        44   981     178.0 
  45        45   980     151.0 
  46        46   981     180.8 
  47        47   982     135.1 
  48        48   982     165.0 
  49        49   981     179.1 
  50        50   981     169.9 
  51        51   980     183.0 
  52        52   983     133.3 
  53        53   981     209.0 
  54        54   981     156.0 
  55        55   981     165.8 
  56        56   982     197.9 
  57        57   982     140.5 
  58        58   981     167.9 
  59        59   981     130.1 
  60        60   980     121.8 
  61        61   983     179.7 
  62        62   981     141.0 
  63        63   981     168.5 
  64        64   981      94.1 
  65        65   982     178.9 
  66        66   982     187.0 
  67        67   981     159.0 
  68        68   981     158.3 
  69        69   981     129.1 
  70        70   983     156.3 
  71        71   980     188.1 
  72        72   981     151.2 
  73        73   981     163.8 
  74        74   982     227.1 
  75        75   981     141.7 
  76        76   980     167.3 
  77        77   980     144.9 
  78        78   982     180.6 
  79        79   982     182.3 
  80        80   980     193.2 
  81        81   981     150.9 
  82        82   980     153.4 
  83        83   982     155.5 
  84        84   980     146.3 
  85        85   980     148.3 
  86        86   980     156.5 
  87        87   982     210.1 
  88        88   981     215.8 
  89        89   980     189.8 
  90        90   981     210.7 
  91        91   981     208.3 
  92        92   982     199.3 
  93        93   980     191.8 
  94        94   980     223.8 
  95        95   980     205.1 
  96        96   982     244.1 
  97        97   981     216.1 
  98        98   980     220.1 
  99        99   980     143.2 
 100       100   980     198.3 
 101       101   981     205.9 
 102       102   980     153.4 
 103       103   980     189.8 
 104       104   980     210.2 
 105       105   982     213.5 
 106       106   980     133.0 
 107       107   980     214.3 
 108       108   980     215.6 
 109       109   981     224.9 
 110       110   980     206.5 
 111       111   980     211.6 
 112       112   980     139.5 
 113       113   980     207.5 
 114       114   981     198.1 
 115       115   980     196.3 
 116       116   980     180.6 
 117       117   980     210.5 
 118       118   980     177.9 
 119       119   980     210.5 
 120       120   979     220.0 
 121       121   980     163.6 
 122       122   980     240.8 
 123       123   981     142.4 
 124       124   979     162.1 
 125       125   980     145.6 
 126       126   980     248.3 
 127       127   981     182.8 
 128       128   980     204.8 
 129       129   979     145.7 
 130       130   979     161.4 
 131       131   980     182.0 
 132       132   980     173.8 
 133       133   979     134.5 
 134       134   979     182.5 
 135       135   979     131.4 
 136       136   980     181.0 
 137       137   979     158.7 
 138       138   979     149.8 
 139       139   979     153.2 
 140       140   980     169.4 
 141       141   980     121.1 
 142       142   978     224.6 
 143       143   980     183.7 
 144       144   979     195.1 
 145       145   980     139.8 
 146       146   978     167.7 
 147       147   979     127.7 
 148       148   979     190.7 
 149       149   979     206.3 
 150       150   979     206.3 
 151       210  1000     221.3 
 152       270   997     205.3 
 153       330  1000     311.3 
 154       390   996     244.6 
 155       450   996     209.5 
 156       510   996     127.8 
 157       570   994     142.2 
 158       630   998     145.0 
 159       810   983     223.1 
 160       990   980     173.8 
 161      1170   985     155.0 
 162      1350   986     299.9 
 163      1530   981     258.6 
 164      2070   980     126.2 
 165      2691   973     165.8 
 166      3405   978     327.5 
 167      4226   978      93.0 
 168      5170   976      31.1 
 169      6256   975     266.3 
 170      7505   974     336.8 
 171      8941   977     328.2 
 172     10592   975      34.9 
 173     12491   973     113.4 
 174     14675   979     130.7 
 175     17187   975     140.9 
 176     20076   974     161.9 
 177     23398   977      12.6 
 178     27218   979     219.3 
 179     31611   980     206.1 
 180     36663   980     298.6 
 181     42473   977     248.0 
 182     49155   978      86.6 
 183     56839   980      93.9 
 184     65676   977     319.0 
 185     75839   981     319.0 
   1         1   156    -123.9 
   2         2   817     246.0 
   3         3   953     241.0 
   4         4   969     180.9 
   5         5   972     167.0 
   6         6   973     226.4 
   7         7   973     242.5 
   8         8   977     249.4 
   9         9   974     234.1 
  10        10   975     253.7 
  11        11   976     329.2 
  12        12   977     339.5 
  13        13   977     352.1 
  14        14   977     316.6 
  15        15   977     342.2 
  16        16   978     338.4 
  17        17   980     342.2 
  18        18   977     288.0 
  19        19   978     318.0 
  20        20   979     343.2 
  21        21   980     276.5 
  22        22   979     265.9 
  23        23   979     202.2 
  24        24   979     316.0 
  25        25   980     233.7 
  26        26   980     201.4 
  27        27   978     169.4 
  28        28   980     205.4 
  29        29   980     221.1 
  30        30   980     222.1 
  31        31   980     222.4 
  32        32   980     232.0 
  33        33   980     222.4 
  34        34   981     197.1 
  35        35   981     200.5 
  36        36   980     200.3 
  37        37   981     231.1 
  38        38   980     226.2 
  39        39   981     186.5 
  40        40   980     163.3 
  41        41   981     217.8 
  42        42   980     259.2 
  43        43   982     241.7 
  44        44   981     212.7 
  45        45   980     196.3 
  46        46   981     232.1 
  47        47   982     233.5 
  48        48   982     190.4 
  49        49   981     207.6 
  50        50   981     280.0 
  51        51   980     214.3 
  52        52   983     177.3 
  53        53   981     206.9 
  54        54   981     234.1 
  55        55   981     223.9 
  56        56   982     236.9 
  57        57   982     174.5 
  58        58   981     207.3 
  59        59   981     284.1 
  60        60   980     226.5 
  61        61   983     175.3 
  62        62   981     227.7 
  63        63   981     238.9 
  64        64   981     268.4 
  65        65   982     255.3 
  66        66   982     238.6 
  67        67   981     222.2 
  68        68   981     282.7 
  69        69   981     212.0 
  70        70   983     226.9 
  71        71   980     228.9 
  72        72   981     242.9 
  73        73   981     267.4 
  74        74   982     245.1 
  75        75   981     274.9 
  76        76   980     224.8 
  77        77   980     265.6 
  78        78   982     273.6 
  79        79   982     191.8 
  80        80   980     229.9 
  81        81   981     273.2 
  82        82   980     268.4 
  83        83   982     236.6 
  84        84   980     234.7 
  85        85   980     244.9 
  86        86   980     248.6 
  87        87   982     262.1 
  88        88   981     203.5 
  89        89   980     278.6 
  90        90   981     262.7 
  91        91   981     298.7 
  92        92   982     236.6 
  93        93   980     258.2 
  94        94   980     253.7 
  95        95   980     349.7 
  96        96   982     291.2 
  97        97   981     235.1 
  98        98   980     290.8 
  99        99   980     302.7 
 100       100   980     345.9 
 101       101   981     240.9 
 102       102   980     266.7 
 103       103   980     323.8 
 104       104   980     329.3 
 105       105   982     259.3 
 106       106   980     272.8 
 107       107   980     300.7 
 108       108   980     260.5 
 109       109   981     257.9 
 110       110   980     264.3 
 111       111   980     336.4 
 112       112   980     327.6 
 113       113   980     291.8 
 114       114   981     244.3 
 115       115   980     225.5 
 116       116   980     270.1 
 117       117   980     292.9 
 118       118   980     309.9 
 119       119   980     239.8 
 120       120   979     272.0 
 121       121   980     327.9 
 122       122   980     290.5 
 123       123   981     228.3 
 124       124   979     238.0 
 125       125   980     281.0 
 126       126   980     258.5 
 127       127   981     183.5 
 128       128   980     259.2 
 129       129   979     272.4 
 130       130   979     280.9 
 131       131   980     254.8 
 132       132   980     242.5 
 133       133   979     257.7 
 134       134   979     318.4 
 135       135   979     237.7 
 136       136   980     221.8 
 137       137   979     208.7 
 138       138   979     215.9 
 139       139   979     238.3 
 140       140   980     219.7 
 141       141   980     315.0 
 142       142   978     247.8 
 143       143   980     240.8 
 144       144   979     198.5 
 145       145   980     233.0 
 146       146   978     247.1 
 147       147   979     275.1 
 148       148   979     210.8 
 149       149   979     201.6 
 150       150   979     201.6 
 151       210  1000     319.7 
 152       270   997     195.3 
 153       330  1000     207.0 
 154       390   996     324.3 
 155       450   996     270.7 
 156       510   996     158.0 
 157       570   994     436.3 
 158       630   998     244.8 
 159       810   983     363.5 
 160       990   980     316.7 
 161      1170   985     156.7 
 162      1350   986     279.2 
 163      1530   981     179.7 
 164      2070   980     383.3 
 165      2691   973     498.5 
 166      3405   978     218.8 
 167      4226   978     362.3 
 168      5170   976     163.9 
 169      6256   975     354.5 
 170      7505   974     155.7 
 171      8941   977     224.2 
 172     10592   975     327.9 
 173     12491   973     361.8 
 174     14675   979     232.2 
 175     17187   975     183.9 
 176     20076   974      33.2 
 177     23398   977     230.0 
 178     27218   979     232.2 
 179     31611   980     191.5 
 180     36663   980     254.8 
 181     42473   977     243.6 
 182     49155   978     119.3 
 183     56839   980     227.9 
 184     65676   977     210.5 
 185     75839   981     210.5 
