PC/104 FIRe Fluorometer 2.0.0
 4/ 8/2025     37212
LED Color:           blue
Gain:               2000
Sample Delay (msec):    10
Number Samples:   3
STF (usec):      150
STRP (#samples):       35
STRI (usec):       60
MTF (ms):        0
MTF (#samples):     0
MTRP (#samples):        0
MTRI (usec):      100
PQLen:     4
Ambient Light Source Power: Off
PAR (uMol/m^2/s):369.32
Comment:
Depth(m):  -0.7
Temperature(C):  72.7
Battery(V):  14.36

         Time    EX   Fl-Yield 
DATA--------------------------
   0         0     0       0.0 
   1         1   156     232.9 
   2         2   817     359.9 
   3         3   953     414.1 
   4         4   969     429.7 
   5         5   972     383.7 
   6         6   973     404.2 
   7         7   973     410.4 
   8         8   977     470.5 
   9         9   974     466.5 
  10        10   975     463.9 
  11        11   976     468.6 
  12        12   977     453.1 
  13        13   977     444.9 
  14        14   977     458.9 
  15        15   977     485.8 
  16        16   978     466.6 
  17        17   980     484.4 
  18        18   977     471.5 
  19        19   978     421.3 
  20        20   979     499.5 
  21        21   980     491.8 
  22        22   979     502.9 
  23        23   979     458.3 
  24        24   979     530.5 
  25        25   980     519.4 
  26        26   980     469.4 
  27        27   978     490.1 
  28        28   980     453.1 
  29        29   980     502.7 
  30        30   980     466.3 
  31        31   980     488.1 
  32        32   980     438.8 
  33        33   980     540.1 
  34        34   981     476.0 
  35        35   981     478.1 
  36        36   980     450.0 
  37        37   981     507.6 
  38        38   980     556.5 
  39        39   981     502.9 
  40        40   980     511.2 
  41        41   981     459.7 
  42        42   980     503.7 
  43        43   982     496.9 
  44        44   981     526.0 
  45        45   980     495.9 
  46        46   981     510.0 
  47        47   982     562.8 
  48        48   982     473.5 
  49        49   981     518.2 
  50        50   981     478.4 
  51        51   980     515.3 
  52        52   983     505.3 
  53        53   981     508.3 
  54        54   981     499.2 
  55        55   981     483.2 
  56        56   982     528.2 
  57        57   982     535.6 
  58        58   981     502.9 
  59        59   981     484.2 
  60        60   980     508.8 
  61        61   983     522.6 
  62        62   981     514.4 
  63        63   981     487.3 
  64        64   981     534.1 
  65        65   982     485.7 
  66        66   982     515.3 
  67        67   981     477.1 
  68        68   981     503.6 
  69        69   981     473.7 
  70        70   983     488.3 
  71        71   980     444.2 
  72        72   981     478.8 
  73        73   981     487.9 
  74        74   982     475.6 
  75        75   981     464.5 
  76        76   980     492.9 
  77        77   980     488.1 
  78        78   982     455.2 
  79        79   982     495.6 
  80        80   980     517.7 
  81        81   981     519.5 
  82        82   980     526.2 
  83        83   982     473.9 
  84        84   980     461.6 
  85        85   980     499.7 
  86        86   980     571.1 
  87        87   982     467.1 
  88        88   981     532.8 
  89        89   980     498.0 
  90        90   981     531.1 
  91        91   981     507.3 
  92        92   982     575.7 
  93        93   980     510.2 
  94        94   980     515.3 
  95        95   980     491.5 
  96        96   982     544.5 
  97        97   981     556.6 
  98        98   980     515.0 
  99        99   980     536.1 
 100       100   980     503.7 
 101       101   981     530.4 
 102       102   980     544.6 
 103       103   980     541.5 
 104       104   980     515.0 
 105       105   982     538.0 
 106       106   980     540.8 
 107       107   980     511.9 
 108       108   980     555.8 
 109       109   981     521.2 
 110       110   980     505.8 
 111       111   980     520.1 
 112       112   980     557.5 
 113       113   980     547.3 
 114       114   981     507.6 
 115       115   980     514.6 
 116       116   980     540.8 
 117       117   980     558.2 
 118       118   980     528.2 
 119       119   980     465.3 
 120       120   979     504.6 
 121       121   980     587.4 
 122       122   980     543.5 
 123       123   981     531.8 
 124       124   979     555.7 
 125       125   980     568.4 
 126       126   980     542.9 
 127       127   981     568.8 
 128       128   980     552.4 
 129       129   979     562.5 
 130       130   979     550.6 
 131       131   980     560.9 
 132       132   980     603.4 
 133       133   979     549.9 
 134       134   979     612.2 
 135       135   979     560.8 
 136       136   980     518.4 
 137       137   979     543.1 
 138       138   979     586.7 
 139       139   979     601.3 
 140       140   980     563.9 
 141       141   980     583.7 
 142       142   978     541.2 
 143       143   980     588.1 
 144       144   979     520.9 
 145       145   980     587.1 
 146       146   978     527.3 
 147       147   979     604.7 
 148       148   979     556.0 
 149       149   979     523.3 
 150       150   979     523.3 
 151       210  1000     541.0 
 152       270   997     486.8 
 153       330  1000     534.7 
 154       390   996     619.5 
 155       450   996     498.0 
 156       510   996     579.0 
 157       570   994     525.5 
 158       630   998     653.0 
 159       810   983     469.3 
 160       990   980     520.7 
 161      1170   985     415.6 
 162      1350   986     566.6 
 163      1530   981     534.8 
 164      2070   980     505.1 
 165      2691   973     415.6 
 166      3405   978     456.4 
 167      4226   978     515.3 
 168      5170   976     461.4 
 169      6256   975     442.7 
 170      7505   974     467.1 
 171      8941   977     494.0 
 172     10592   975     523.8 
 173     12491   973     414.5 
 174     14675   979     395.0 
 175     17187   975     471.8 
 176     20076   974     475.0 
 177     23398   977     377.7 
 178     27218   979     505.6 
 179     31611   980     376.5 
 180     36663   980     400.7 
 181     42473   977     378.4 
 182     49155   978     432.2 
 183     56839   980     384.4 
 184     65676   977     387.9 
 185     75839   981     387.9 
   1         1   156     350.4 
   2         2   817     638.9 
   3         3   953     670.5 
   4         4   969     651.5 
   5         5   972     667.4 
   6         6   973     657.4 
   7         7   973     622.1 
   8         8   977     675.9 
   9         9   974     724.8 
  10        10   975     664.6 
  11        11   976     673.5 
  12        12   977     663.3 
  13        13   977     747.2 
  14        14   977     701.1 
  15        15   977     729.1 
  16        16   978     732.1 
  17        17   980     750.7 
  18        18   977     732.5 
  19        19   978     727.0 
  20        20   979     676.5 
  21        21   980     703.1 
  22        22   979     717.4 
  23        23   979     685.4 
  24        24   979     657.1 
  25        25   980     634.4 
  26        26   980     678.9 
  27        27   978     716.1 
  28        28   980     671.1 
  29        29   980     682.7 
  30        30   980     714.3 
  31        31   980     736.4 
  32        32   980     724.5 
  33        33   980     705.8 
  34        34   981     680.3 
  35        35   981     706.4 
  36        36   980     713.6 
  37        37   981     649.3 
  38        38   980     713.3 
  39        39   981     728.5 
  40        40   980     678.6 
  41        41   981     642.2 
  42        42   980     598.3 
  43        43   982     719.3 
  44        44   981     769.3 
  45        45   980     683.3 
  46        46   981     649.7 
  47        47   982     635.1 
  48        48   982     725.7 
  49        49   981     745.8 
  50        50   981     729.2 
  51        51   980     625.9 
  52        52   983     698.5 
  53        53   981     692.2 
  54        54   981     678.6 
  55        55   981     613.0 
  56        56   982     703.0 
  57        57   982     714.5 
  58        58   981     677.5 
  59        59   981     633.4 
  60        60   980     658.5 
  61        61   983     704.6 
  62        62   981     709.8 
  63        63   981     658.2 
  64        64   981     603.1 
  65        65   982     696.5 
  66        66   982     662.9 
  67        67   981     680.9 
  68        68   981     652.1 
  69        69   981     689.8 
  70        70   983     645.6 
  71        71   980     650.0 
  72        72   981     651.0 
  73        73   981     663.9 
  74        74   982     691.1 
  75        75   981     672.8 
  76        76   980     645.9 
  77        77   980     663.3 
  78        78   982     617.8 
  79        79   982     724.4 
  80        80   980     648.0 
  81        81   981     608.9 
  82        82   980     625.9 
  83        83   982     651.1 
  84        84   980     662.9 
  85        85   980     636.7 
  86        86   980     610.9 
  87        87   982     649.4 
  88        88   981     662.9 
  89        89   980     632.7 
  90        90   981     660.6 
  91        91   981     612.3 
  92        92   982     666.7 
  93        93   980     657.8 
  94        94   980     623.5 
  95        95   980     612.2 
  96        96   982     652.4 
  97        97   981     713.6 
  98        98   980     639.1 
  99        99   980     595.9 
 100       100   980     625.9 
 101       101   981     643.6 
 102       102   980     662.2 
 103       103   980     619.7 
 104       104   980     691.8 
 105       105   982     630.3 
 106       106   980     705.4 
 107       107   980     669.7 
 108       108   980     647.3 
 109       109   981     675.8 
 110       110   980     645.6 
 111       111   980     659.5 
 112       112   980     664.3 
 113       113   980     668.0 
 114       114   981     715.3 
 115       115   980     693.9 
 116       116   980     694.2 
 117       117   980     613.6 
 118       118   980     709.9 
 119       119   980     751.4 
 120       120   979     700.4 
 121       121   980     650.3 
 122       122   980     682.3 
 123       123   981     671.4 
 124       124   979     702.4 
 125       125   980     666.0 
 126       126   980     711.2 
 127       127   981     727.5 
 128       128   980     677.2 
 129       129   979     679.6 
 130       130   979     629.2 
 131       131   980     717.3 
 132       132   980     728.6 
 133       133   979     723.9 
 134       134   979     677.6 
 135       135   979     685.4 
 136       136   980     744.9 
 137       137   979     695.6 
 138       138   979     704.1 
 139       139   979     710.2 
 140       140   980     716.3 
 141       141   980     759.5 
 142       142   978     715.7 
 143       143   980     736.1 
 144       144   979     728.3 
 145       145   980     761.6 
 146       146   978     736.5 
 147       147   979     696.6 
 148       148   979     693.9 
 149       149   979     711.3 
 150       150   979     711.3 
 151       210  1000     579.0 
 152       270   997     837.2 
 153       330  1000     679.0 
 154       390   996     689.4 
 155       450   996     712.2 
 156       510   996     810.9 
 157       570   994     635.5 
 158       630   998     653.3 
 159       810   983     649.0 
 160       990   980     758.2 
 161      1170   985     703.2 
 162      1350   986     763.4 
 163      1530   981     852.5 
 164      2070   980     592.2 
 165      2691   973     619.7 
 166      3405   978     744.4 
 167      4226   978     676.6 
 168      5170   976     684.4 
 169      6256   975     588.0 
 170      7505   974     695.1 
 171      8941   977     724.0 
 172     10592   975     602.1 
 173     12491   973     645.1 
 174     14675   979     627.9 
 175     17187   975     642.7 
 176     20076   974     654.3 
 177     23398   977     567.4 
 178     27218   979     595.8 
 179     31611   980     615.6 
 180     36663   980     513.6 
 181     42473   977     529.9 
 182     49155   978     536.8 
 183     56839   980     434.4 
 184     65676   977     531.6 
 185     75839   981     531.6 
