PC/104 FIRe Fluorometer 2.0.0
 4/ 8/2025     33423
LED Color:           blue
Gain:               1900
Sample Delay (msec):    10
Number Samples:   3
STF (usec):      150
STRP (#samples):       35
STRI (usec):       60
MTF (ms):        0
MTF (#samples):     0
MTRP (#samples):        0
MTRI (usec):      100
PQLen:     4
Ambient Light Source Power: Off
PAR (uMol/m^2/s):305.63
Comment:
Depth(m):   1.8
Temperature(C):  67.3
Battery(V):  15.11

         Time    EX   Fl-Yield 
DATA--------------------------
   0         0     0       0.0 
   1         1   156     183.8 
   2         2   817     279.5 
   3         3   953     277.7 
   4         4   969     334.4 
   5         5   972     308.0 
   6         6   973     285.0 
   7         7   973     316.5 
   8         8   977     356.5 
   9         9   974     373.7 
  10        10   975     362.4 
  11        11   976     313.9 
  12        12   977     344.9 
  13        13   977     373.6 
  14        14   977     410.1 
  15        15   977     361.7 
  16        16   978     366.1 
  17        17   980     365.0 
  18        18   977     369.8 
  19        19   978     357.5 
  20        20   979     370.8 
  21        21   980     381.3 
  22        22   979     375.2 
  23        23   979     397.0 
  24        24   979     354.4 
  25        25   980     375.9 
  26        26   980     415.6 
  27        27   978     440.4 
  28        28   980     396.3 
  29        29   980     391.8 
  30        30   980     408.5 
  31        31   980     438.8 
  32        32   980     440.8 
  33        33   980     443.5 
  34        34   981     449.9 
  35        35   981     448.2 
  36        36   980     435.4 
  37        37   981     424.7 
  38        38   980     418.0 
  39        39   981     459.1 
  40        40   980     477.6 
  41        41   981     463.1 
  42        42   980     411.6 
  43        43   982     427.4 
  44        44   981     459.7 
  45        45   980     448.6 
  46        46   981     448.9 
  47        47   982     438.2 
  48        48   982     439.9 
  49        49   981     452.9 
  50        50   981     460.8 
  51        51   980     461.9 
  52        52   983     420.1 
  53        53   981     458.7 
  54        54   981     450.2 
  55        55   981     456.3 
  56        56   982     452.8 
  57        57   982     439.9 
  58        58   981     450.6 
  59        59   981     422.4 
  60        60   980     438.1 
  61        61   983     423.2 
  62        62   981     467.9 
  63        63   981     425.8 
  64        64   981     389.4 
  65        65   982     419.9 
  66        66   982     462.3 
  67        67   981     463.1 
  68        68   981     433.9 
  69        69   981     450.9 
  70        70   983     445.2 
  71        71   980     447.3 
  72        72   981     426.1 
  73        73   981     412.2 
  74        74   982     417.9 
  75        75   981     422.0 
  76        76   980     461.2 
  77        77   980     385.7 
  78        78   982     411.1 
  79        79   982     450.4 
  80        80   980     461.9 
  81        81   981     417.6 
  82        82   980     425.5 
  83        83   982     401.6 
  84        84   980     430.6 
  85        85   980     443.9 
  86        86   980     411.9 
  87        87   982     439.9 
  88        88   981     414.9 
  89        89   980     452.4 
  90        90   981     401.0 
  91        91   981     406.4 
  92        92   982     422.3 
  93        93   980     467.0 
  94        94   980     411.6 
  95        95   980     424.1 
  96        96   982     421.6 
  97        97   981     466.9 
  98        98   980     459.9 
  99        99   980     384.4 
 100       100   980     404.8 
 101       101   981     440.0 
 102       102   980     464.3 
 103       103   980     434.7 
 104       104   980     402.7 
 105       105   982     407.0 
 106       106   980     434.0 
 107       107   980     443.2 
 108       108   980     386.1 
 109       109   981     411.5 
 110       110   980     401.4 
 111       111   980     457.1 
 112       112   980     381.0 
 113       113   980     329.3 
 114       114   981     423.0 
 115       115   980     423.1 
 116       116   980     460.9 
 117       117   980     378.2 
 118       118   980     405.8 
 119       119   980     432.3 
 120       120   979     412.0 
 121       121   980     422.1 
 122       122   980     432.0 
 123       123   981     409.4 
 124       124   979     397.7 
 125       125   980     415.6 
 126       126   980     372.8 
 127       127   981     427.8 
 128       128   980     420.1 
 129       129   979     413.7 
 130       130   979     381.3 
 131       131   980     432.3 
 132       132   980     433.7 
 133       133   979     434.1 
 134       134   979     417.8 
 135       135   979     330.9 
 136       136   980     383.0 
 137       137   979     438.5 
 138       138   979     428.7 
 139       139   979     375.6 
 140       140   980     419.4 
 141       141   980     388.8 
 142       142   978     449.6 
 143       143   980     419.7 
 144       144   979     384.7 
 145       145   980     427.9 
 146       146   978     432.2 
 147       147   979     391.9 
 148       148   979     398.7 
 149       149   979     404.8 
 150       150   979     404.8 
 151       210  1000     435.3 
 152       270   997     360.7 
 153       330  1000     470.0 
 154       390   996     352.7 
 155       450   996     375.5 
 156       510   996     428.0 
 157       570   994     336.0 
 158       630   998     420.2 
 159       810   983     341.5 
 160       990   980     340.1 
 161      1170   985     477.2 
 162      1350   986     393.8 
 163      1530   981     379.9 
 164      2070   980     330.3 
 165      2691   973     465.9 
 166      3405   978     271.3 
 167      4226   978     416.2 
 168      5170   976     292.0 
 169      6256   975     451.3 
 170      7505   974     275.8 
 171      8941   977     376.3 
 172     10592   975     256.8 
 173     12491   973     363.5 
 174     14675   979     296.6 
 175     17187   975     379.8 
 176     20076   974     443.5 
 177     23398   977     301.3 
 178     27218   979     357.2 
 179     31611   980     191.2 
 180     36663   980     414.6 
 181     42473   977     317.3 
 182     49155   978     318.7 
 183     56839   980     368.7 
 184     65676   977     209.1 
 185     75839   981     209.1 
   1         1   156     228.6 
   2         2   817     525.1 
   3         3   953     485.1 
   4         4   969     489.5 
   5         5   972     458.8 
   6         6   973     463.9 
   7         7   973     483.7 
   8         8   977     468.8 
   9         9   974     456.9 
  10        10   975     502.6 
  11        11   976     502.0 
  12        12   977     550.0 
  13        13   977     495.7 
  14        14   977     504.9 
  15        15   977     514.2 
  16        16   978     527.3 
  17        17   980     490.8 
  18        18   977     464.3 
  19        19   978     514.3 
  20        20   979     515.2 
  21        21   980     526.9 
  22        22   979     467.1 
  23        23   979     494.7 
  24        24   979     479.4 
  25        25   980     451.7 
  26        26   980     491.2 
  27        27   978     484.0 
  28        28   980     467.3 
  29        29   980     489.5 
  30        30   980     478.6 
  31        31   980     474.8 
  32        32   980     479.3 
  33        33   980     487.1 
  34        34   981     499.2 
  35        35   981     426.4 
  36        36   980     459.9 
  37        37   981     466.5 
  38        38   980     527.2 
  39        39   981     463.1 
  40        40   980     454.8 
  41        41   981     470.3 
  42        42   980     467.7 
  43        43   982     506.4 
  44        44   981     489.0 
  45        45   980     492.2 
  46        46   981     482.2 
  47        47   982     501.4 
  48        48   982     477.3 
  49        49   981     492.0 
  50        50   981     506.3 
  51        51   980     532.0 
  52        52   983     500.5 
  53        53   981     479.4 
  54        54   981     498.5 
  55        55   981     491.0 
  56        56   982     520.4 
  57        57   982     444.3 
  58        58   981     489.3 
  59        59   981     493.7 
  60        60   980     521.8 
  61        61   983     500.5 
  62        62   981     533.5 
  63        63   981     481.8 
  64        64   981     509.3 
  65        65   982     501.4 
  66        66   982     481.7 
  67        67   981     498.1 
  68        68   981     503.2 
  69        69   981     499.5 
  70        70   983     482.9 
  71        71   980     474.8 
  72        72   981     499.5 
  73        73   981     486.6 
  74        74   982     450.4 
  75        75   981     499.2 
  76        76   980     478.2 
  77        77   980     498.3 
  78        78   982     519.7 
  79        79   982     468.8 
  80        80   980     398.0 
  81        81   981     479.4 
  82        82   980     463.3 
  83        83   982     512.2 
  84        84   980     481.6 
  85        85   980     488.8 
  86        86   980     493.2 
  87        87   982     518.7 
  88        88   981     507.0 
  89        89   980     515.6 
  90        90   981     511.0 
  91        91   981     498.1 
  92        92   982     519.7 
  93        93   980     442.2 
  94        94   980     505.1 
  95        95   980     534.4 
  96        96   982     487.8 
  97        97   981     487.6 
  98        98   980     518.0 
  99        99   980     492.2 
 100       100   980     565.0 
 101       101   981     515.5 
 102       102   980     507.8 
 103       103   980     491.8 
 104       104   980     520.7 
 105       105   982     523.1 
 106       106   980     531.0 
 107       107   980     530.6 
 108       108   980     515.3 
 109       109   981     544.0 
 110       110   980     495.2 
 111       111   980     498.0 
 112       112   980     506.8 
 113       113   980     557.8 
 114       114   981     526.7 
 115       115   980     494.6 
 116       116   980     491.8 
 117       117   980     521.1 
 118       118   980     531.0 
 119       119   980     499.7 
 120       120   979     530.1 
 121       121   980     495.6 
 122       122   980     508.2 
 123       123   981     524.3 
 124       124   979     513.8 
 125       125   980     528.2 
 126       126   980     516.7 
 127       127   981     468.2 
 128       128   980     490.1 
 129       129   979     523.7 
 130       130   979     516.9 
 131       131   980     565.6 
 132       132   980     534.0 
 133       133   979     480.1 
 134       134   979     493.7 
 135       135   979     531.5 
 136       136   980     525.2 
 137       137   979     495.4 
 138       138   979     533.9 
 139       139   979     513.4 
 140       140   980     513.9 
 141       141   980     494.9 
 142       142   978     511.9 
 143       143   980     492.2 
 144       144   979     504.9 
 145       145   980     487.1 
 146       146   978     496.6 
 147       147   979     499.1 
 148       148   979     539.7 
 149       149   979     447.4 
 150       150   979     447.4 
 151       210  1000     529.0 
 152       270   997     569.0 
 153       330  1000     519.3 
 154       390   996     529.1 
 155       450   996     488.6 
 156       510   996     539.5 
 157       570   994     534.9 
 158       630   998     526.7 
 159       810   983     573.8 
 160       990   980     504.8 
 161      1170   985     433.8 
 162      1350   986     559.2 
 163      1530   981     560.7 
 164      2070   980     611.6 
 165      2691   973     466.6 
 166      3405   978     525.2 
 167      4226   978     523.2 
 168      5170   976     559.8 
 169      6256   975     455.0 
 170      7505   974     492.8 
 171      8941   977     443.5 
 172     10592   975     455.7 
 173     12491   973     548.8 
 174     14675   979     521.6 
 175     17187   975     500.9 
 176     20076   974     477.4 
 177     23398   977     543.8 
 178     27218   979     486.9 
 179     31611   980     413.6 
 180     36663   980     386.4 
 181     42473   977     329.6 
 182     49155   978     388.2 
 183     56839   980     469.4 
 184     65676   977     521.3 
 185     75839   981     521.3 
