PC/104 FIRe Fluorometer 2.0.0
 4/ 8/2025     29442
LED Color:           blue
Gain:               1800
Sample Delay (msec):    10
Number Samples:   3
STF (usec):      150
STRP (#samples):       35
STRI (usec):       60
MTF (ms):        0
MTF (#samples):     0
MTRP (#samples):        0
MTRI (usec):      100
PQLen:     4
Ambient Light Source Power: Off
PAR (uMol/m^2/s):539.79
Comment:
Depth(m):   2.8
Temperature(C):  52.4
Battery(V):  15.99

         Time    EX   Fl-Yield 
DATA--------------------------
   0         0     0       0.0 
   1         1   156     196.6 
   2         2   817     259.1 
   3         3   953     262.3 
   4         4   969     303.1 
   5         5   972     228.4 
   6         6   973     247.3 
   7         7   973     292.6 
   8         8   977     314.6 
   9         9   974     273.1 
  10        10   975     273.8 
  11        11   976     291.7 
  12        12   977     326.9 
  13        13   977     315.9 
  14        14   977     319.0 
  15        15   977     319.3 
  16        16   978     326.9 
  17        17   980     352.0 
  18        18   977     334.7 
  19        19   978     334.4 
  20        20   979     373.2 
  21        21   980     363.3 
  22        22   979     357.2 
  23        23   979     344.2 
  24        24   979     378.6 
  25        25   980     388.1 
  26        26   980     395.9 
  27        27   978     396.4 
  28        28   980     360.5 
  29        29   980     381.3 
  30        30   980     401.7 
  31        31   980     418.4 
  32        32   980     358.2 
  33        33   980     383.0 
  34        34   981     399.3 
  35        35   981     398.2 
  36        36   980     392.9 
  37        37   981     409.4 
  38        38   980     410.9 
  39        39   981     430.5 
  40        40   980     445.9 
  41        41   981     409.8 
  42        42   980     410.5 
  43        43   982     471.1 
  44        44   981     452.3 
  45        45   980     407.5 
  46        46   981     414.2 
  47        47   982     447.4 
  48        48   982     474.9 
  49        49   981     472.3 
  50        50   981     426.1 
  51        51   980     425.5 
  52        52   983     468.0 
  53        53   981     484.2 
  54        54   981     459.7 
  55        55   981     462.1 
  56        56   982     459.9 
  57        57   982     480.0 
  58        58   981     428.1 
  59        59   981     422.0 
  60        60   980     473.5 
  61        61   983     457.8 
  62        62   981     427.5 
  63        63   981     433.2 
  64        64   981     439.7 
  65        65   982     487.4 
  66        66   982     473.2 
  67        67   981     424.4 
  68        68   981     421.7 
  69        69   981     461.4 
  70        70   983     508.6 
  71        71   980     444.9 
  72        72   981     448.2 
  73        73   981     431.5 
  74        74   982     476.9 
  75        75   981     465.2 
  76        76   980     443.5 
  77        77   980     461.9 
  78        78   982     453.8 
  79        79   982     484.4 
  80        80   980     474.1 
  81        81   981     445.8 
  82        82   980     476.2 
  83        83   982     473.9 
  84        84   980     466.0 
  85        85   980     459.2 
  86        86   980     413.3 
  87        87   982     463.0 
  88        88   981     458.7 
  89        89   980     447.3 
  90        90   981     442.7 
  91        91   981     437.3 
  92        92   982     433.8 
  93        93   980     431.6 
  94        94   980     446.3 
  95        95   980     443.5 
  96        96   982     436.9 
  97        97   981     485.6 
  98        98   980     459.9 
  99        99   980     415.3 
 100       100   980     406.1 
 101       101   981     477.7 
 102       102   980     486.1 
 103       103   980     410.9 
 104       104   980     428.2 
 105       105   982     410.7 
 106       106   980     492.9 
 107       107   980     457.1 
 108       108   980     424.1 
 109       109   981     415.6 
 110       110   980     433.3 
 111       111   980     465.3 
 112       112   980     415.0 
 113       113   980     433.0 
 114       114   981     418.3 
 115       115   980     425.5 
 116       116   980     451.0 
 117       117   980     413.3 
 118       118   980     426.5 
 119       119   980     412.9 
 120       120   979     478.4 
 121       121   980     423.1 
 122       122   980     413.9 
 123       123   981     424.4 
 124       124   979     436.2 
 125       125   980     410.9 
 126       126   980     426.5 
 127       127   981     398.6 
 128       128   980     463.3 
 129       129   979     429.3 
 130       130   979     411.3 
 131       131   980     414.3 
 132       132   980     434.0 
 133       133   979     414.0 
 134       134   979     421.5 
 135       135   979     400.4 
 136       136   980     416.7 
 137       137   979     449.1 
 138       138   979     445.7 
 139       139   979     409.6 
 140       140   980     409.9 
 141       141   980     461.6 
 142       142   978     437.6 
 143       143   980     430.3 
 144       144   979     424.2 
 145       145   980     458.2 
 146       146   978     453.3 
 147       147   979     443.3 
 148       148   979     441.6 
 149       149   979     427.6 
 150       150   979     427.6 
 151       210  1000     505.7 
 152       270   997     449.7 
 153       330  1000     340.0 
 154       390   996     474.9 
 155       450   996     330.0 
 156       510   996     414.7 
 157       570   994     333.7 
 158       630   998     420.2 
 159       810   983     375.4 
 160       990   980     347.3 
 161      1170   985     392.9 
 162      1350   986     242.1 
 163      1530   981     343.2 
 164      2070   980     378.6 
 165      2691   973     415.6 
 166      3405   978     362.6 
 167      4226   978     334.4 
 168      5170   976     322.1 
 169      6256   975     209.2 
 170      7505   974     234.1 
 171      8941   977     271.9 
 172     10592   975     305.6 
 173     12491   973     305.2 
 174     14675   979     445.4 
 175     17187   975     288.9 
 176     20076   974     375.4 
 177     23398   977     343.6 
 178     27218   979     221.0 
 179     31611   980     288.4 
 180     36663   980     357.8 
 181     42473   977     246.3 
 182     49155   978     368.8 
 183     56839   980     262.2 
 184     65676   977     291.4 
 185     75839   981     291.4 
   1         1   156     771.4 
   2         2   817     596.9 
   3         3   953     560.0 
   4         4   969     549.4 
   5         5   972     556.2 
   6         6   973     556.4 
   7         7   973     540.3 
   8         8   977     572.5 
   9         9   974     619.8 
  10        10   975     611.6 
  11        11   976     577.2 
  12        12   977     622.0 
  13        13   977     632.2 
  14        14   977     663.6 
  15        15   977     626.1 
  16        16   978     631.9 
  17        17   980     619.4 
  18        18   977     668.0 
  19        19   978     626.1 
  20        20   979     609.8 
  21        21   980     603.4 
  22        22   979     600.6 
  23        23   979     602.3 
  24        24   979     620.7 
  25        25   980     589.1 
  26        26   980     625.9 
  27        27   978     610.4 
  28        28   980     612.6 
  29        29   980     604.1 
  30        30   980     599.3 
  31        31   980     613.6 
  32        32   980     660.5 
  33        33   980     616.7 
  34        34   981     618.8 
  35        35   981     599.7 
  36        36   980     633.7 
  37        37   981     652.1 
  38        38   980     604.4 
  39        39   981     623.5 
  40        40   980     614.6 
  41        41   981     676.2 
  42        42   980     640.1 
  43        43   982     629.0 
  44        44   981     658.9 
  45        45   980     678.9 
  46        46   981     667.0 
  47        47   982     619.5 
  48        48   982     666.0 
  49        49   981     658.5 
  50        50   981     684.7 
  51        51   980     659.2 
  52        52   983     648.7 
  53        53   981     664.3 
  54        54   981     654.4 
  55        55   981     653.1 
  56        56   982     635.4 
  57        57   982     607.3 
  58        58   981     655.5 
  59        59   981     663.6 
  60        60   980     656.8 
  61        61   983     624.3 
  62        62   981     635.4 
  63        63   981     655.5 
  64        64   981     644.9 
  65        65   982     643.6 
  66        66   982     655.8 
  67        67   981     648.3 
  68        68   981     674.5 
  69        69   981     623.2 
  70        70   983     636.8 
  71        71   980     615.3 
  72        72   981     677.2 
  73        73   981     626.6 
  74        74   982     619.5 
  75        75   981     614.3 
  76        76   980     634.0 
  77        77   980     652.0 
  78        78   982     620.2 
  79        79   982     640.2 
  80        80   980     618.7 
  81        81   981     633.4 
  82        82   980     608.8 
  83        83   982     617.4 
  84        84   980     611.6 
  85        85   980     620.7 
  86        86   980     602.0 
  87        87   982     616.8 
  88        88   981     627.3 
  89        89   980     604.8 
  90        90   981     649.7 
  91        91   981     606.5 
  92        92   982     588.3 
  93        93   980     604.8 
  94        94   980     633.0 
  95        95   980     632.3 
  96        96   982     598.8 
  97        97   981     585.1 
  98        98   980     598.3 
  99        99   980     624.5 
 100       100   980     624.8 
 101       101   981     612.0 
 102       102   980     643.2 
 103       103   980     631.0 
 104       104   980     615.0 
 105       105   982     622.9 
 106       106   980     612.2 
 107       107   980     618.7 
 108       108   980     641.5 
 109       109   981     596.0 
 110       110   980     556.8 
 111       111   980     634.0 
 112       112   980     601.4 
 113       113   980     624.5 
 114       114   981     593.6 
 115       115   980     588.8 
 116       116   980     599.0 
 117       117   980     592.2 
 118       118   980     599.7 
 119       119   980     612.9 
 120       120   979     612.2 
 121       121   980     592.5 
 122       122   980     577.2 
 123       123   981     575.3 
 124       124   979     596.5 
 125       125   980     602.0 
 126       126   980     605.8 
 127       127   981     599.0 
 128       128   980     586.4 
 129       129   979     619.3 
 130       130   979     651.0 
 131       131   980     574.8 
 132       132   980     580.3 
 133       133   979     582.6 
 134       134   979     611.2 
 135       135   979     640.1 
 136       136   980     589.8 
 137       137   979     586.7 
 138       138   979     612.2 
 139       139   979     599.9 
 140       140   980     610.2 
 141       141   980     611.2 
 142       142   978     622.7 
 143       143   980     612.2 
 144       144   979     630.6 
 145       145   980     596.9 
 146       146   978     611.8 
 147       147   979     610.8 
 148       148   979     641.5 
 149       149   979     627.9 
 150       150   979     627.9 
 151       210  1000     640.0 
 152       270   997     660.0 
 153       330  1000     555.7 
 154       390   996     698.5 
 155       450   996     528.4 
 156       510   996     580.0 
 157       570   994     606.0 
 158       630   998     577.5 
 159       810   983     631.1 
 160       990   980     542.2 
 161      1170   985     673.8 
 162      1350   986     592.0 
 163      1530   981     635.7 
 164      2070   980     633.0 
 165      2691   973     604.0 
 166      3405   978     544.3 
 167      4226   978     486.7 
 168      5170   976     603.5 
 169      6256   975     534.7 
 170      7505   974     563.3 
 171      8941   977     581.4 
 172     10592   975     498.8 
 173     12491   973     502.9 
 174     14675   979     526.7 
 175     17187   975     477.3 
 176     20076   974     478.4 
 177     23398   977     468.1 
 178     27218   979     466.8 
 179     31611   980     376.5 
 180     36663   980     427.6 
 181     42473   977     449.7 
 182     49155   978     327.2 
 183     56839   980     243.5 
 184     65676   977     497.1 
 185     75839   981     497.1 
