PC/104 FIRe Fluorometer 2.0.0
 4/ 8/2025     29628
LED Color:           blue
Gain:               1900
Sample Delay (msec):    10
Number Samples:   3
STF (usec):      150
STRP (#samples):       35
STRI (usec):       60
MTF (ms):        0
MTF (#samples):     0
MTRP (#samples):        0
MTRI (usec):      100
PQLen:     4
Ambient Light Source Power: Off
PAR (uMol/m^2/s):900.00
Comment:
Depth(m):   2.3
Temperature(C):  52.6
Battery(V):  15.96

         Time    EX   Fl-Yield 
DATA--------------------------
   0         0     0       0.0 
   1         1   156     -85.5 
   2         2   817     209.3 
   3         3   953     252.5 
   4         4   969     261.1 
   5         5   972     210.6 
   6         6   973     213.1 
   7         7   973     230.6 
   8         8   977     255.2 
   9         9   974     256.3 
  10        10   975     236.9 
  11        11   976     217.2 
  12        12   977     250.1 
  13        13   977     234.7 
  14        14   977     247.4 
  15        15   977     211.9 
  16        16   978     263.8 
  17        17   980     310.5 
  18        18   977     240.2 
  19        19   978     222.9 
  20        20   979     242.8 
  21        21   980     257.5 
  22        22   979     308.8 
  23        23   979     253.7 
  24        24   979     252.6 
  25        25   980     296.6 
  26        26   980     283.3 
  27        27   978     257.3 
  28        28   980     246.6 
  29        29   980     252.0 
  30        30   980     245.6 
  31        31   980     296.6 
  32        32   980     251.0 
  33        33   980     256.5 
  34        34   981     309.5 
  35        35   981     335.7 
  36        36   980     280.6 
  37        37   981     273.5 
  38        38   980     240.1 
  39        39   981     315.7 
  40        40   980     307.1 
  41        41   981     259.6 
  42        42   980     266.0 
  43        43   982     307.9 
  44        44   981     345.2 
  45        45   980     279.6 
  46        46   981     256.9 
  47        47   982     265.8 
  48        48   982     317.0 
  49        49   981     310.2 
  50        50   981     300.4 
  51        51   980     266.7 
  52        52   983     303.2 
  53        53   981     310.6 
  54        54   981     296.6 
  55        55   981     280.0 
  56        56   982     292.6 
  57        57   982     306.9 
  58        58   981     329.9 
  59        59   981     272.5 
  60        60   980     339.1 
  61        61   983     352.7 
  62        62   981     370.0 
  63        63   981     269.5 
  64        64   981     312.9 
  65        65   982     309.2 
  66        66   982     390.4 
  67        67   981     309.5 
  68        68   981     298.0 
  69        69   981     311.6 
  70        70   983     372.7 
  71        71   980     352.4 
  72        72   981     303.1 
  73        73   981     319.1 
  74        74   982     370.0 
  75        75   981     362.6 
  76        76   980     322.4 
  77        77   980     273.5 
  78        78   982     354.4 
  79        79   982     357.1 
  80        80   980     393.5 
  81        81   981     293.9 
  82        82   980     306.5 
  83        83   982     340.8 
  84        84   980     405.1 
  85        85   980     359.5 
  86        86   980     317.3 
  87        87   982     307.5 
  88        88   981     356.4 
  89        89   980     378.2 
  90        90   981     352.0 
  91        91   981     316.7 
  92        92   982     319.8 
  93        93   980     399.0 
  94        94   980     322.4 
  95        95   980     347.3 
  96        96   982     305.2 
  97        97   981     407.4 
  98        98   980     335.4 
  99        99   980     346.9 
 100       100   980     312.2 
 101       101   981     351.7 
 102       102   980     378.6 
 103       103   980     352.4 
 104       104   980     298.3 
 105       105   982     323.2 
 106       106   980     385.7 
 107       107   980     362.9 
 108       108   980     327.2 
 109       109   981     344.5 
 110       110   980     358.5 
 111       111   980     379.6 
 112       112   980     389.8 
 113       113   980     340.5 
 114       114   981     377.5 
 115       115   980     357.8 
 116       116   980     359.2 
 117       117   980     318.4 
 118       118   980     338.4 
 119       119   980     381.6 
 120       120   979     389.2 
 121       121   980     313.9 
 122       122   980     343.9 
 123       123   981     350.7 
 124       124   979     403.8 
 125       125   980     376.5 
 126       126   980     360.9 
 127       127   981     335.0 
 128       128   980     339.5 
 129       129   979     384.4 
 130       130   979     349.7 
 131       131   980     325.9 
 132       132   980     370.7 
 133       133   979     363.6 
 134       134   979     337.8 
 135       135   979     305.1 
 136       136   980     312.9 
 137       137   979     392.6 
 138       138   979     355.5 
 139       139   979     315.6 
 140       140   980     320.4 
 141       141   980     347.3 
 142       142   978     360.9 
 143       143   980     323.5 
 144       144   979     313.2 
 145       145   980     321.4 
 146       146   978     353.4 
 147       147   979     368.7 
 148       148   979     287.0 
 149       149   979     300.0 
 150       150   979     300.0 
 151       210  1000     412.7 
 152       270   997     378.8 
 153       330  1000     251.7 
 154       390   996     387.6 
 155       450   996     325.0 
 156       510   996     318.6 
 157       570   994     322.9 
 158       630   998     355.4 
 159       810   983     469.7 
 160       990   980     259.2 
 161      1170   985     310.0 
 162      1350   986     363.8 
 163      1530   981     209.7 
 164      2070   980     273.1 
 165      2691   973     245.3 
 166      3405   978     186.8 
 167      4226   978     200.7 
 168      5170   976     287.2 
 169      6256   975     202.1 
 170      7505   974     285.8 
 171      8941   977     352.1 
 172     10592   975     355.9 
 173     12491   973     185.7 
 174     14675   979     356.8 
 175     17187   975     241.4 
 176     20076   974     316.2 
 177     23398   977     171.6 
 178     27218   979     246.5 
 179     31611   980     356.5 
 180     36663   980     239.1 
 181     42473   977     195.8 
 182     49155   978     320.4 
 183     56839   980     277.6 
 184     65676   977     182.5 
 185     75839   981     182.5 
   1         1   156     538.5 
   2         2   817     413.7 
   3         3   953     399.4 
   4         4   969     391.5 
   5         5   972     443.8 
   6         6   973     445.0 
   7         7   973     445.7 
   8         8   977     462.3 
   9         9   974     512.3 
  10        10   975     558.3 
  11        11   976     570.0 
  12        12   977     555.1 
  13        13   977     571.8 
  14        14   977     600.5 
  15        15   977     603.9 
  16        16   978     537.8 
  17        17   980     519.7 
  18        18   977     572.8 
  19        19   978     538.5 
  20        20   979     517.5 
  21        21   980     507.1 
  22        22   979     464.4 
  23        23   979     527.1 
  24        24   979     501.2 
  25        25   980     458.2 
  26        26   980     423.8 
  27        27   978     514.0 
  28        28   980     482.0 
  29        29   980     495.2 
  30        30   980     446.6 
  31        31   980     478.2 
  32        32   980     527.6 
  33        33   980     525.5 
  34        34   981     456.3 
  35        35   981     472.0 
  36        36   980     489.1 
  37        37   981     460.1 
  38        38   980     460.5 
  39        39   981     483.5 
  40        40   980     467.0 
  41        41   981     520.2 
  42        42   980     509.2 
  43        43   982     526.1 
  44        44   981     519.9 
  45        45   980     543.5 
  46        46   981     557.6 
  47        47   982     510.9 
  48        48   982     487.8 
  49        49   981     543.0 
  50        50   981     512.7 
  51        51   980     529.6 
  52        52   983     523.2 
  53        53   981     507.3 
  54        54   981     571.2 
  55        55   981     536.2 
  56        56   982     530.5 
  57        57   982     516.0 
  58        58   981     521.2 
  59        59   981     539.6 
  60        60   980     519.4 
  61        61   983     498.1 
  62        62   981     491.7 
  63        63   981     583.8 
  64        64   981     543.3 
  65        65   982     499.0 
  66        66   982     515.6 
  67        67   981     553.5 
  68        68   981     511.0 
  69        69   981     509.3 
  70        70   983     489.3 
  71        71   980     531.3 
  72        72   981     476.7 
  73        73   981     489.6 
  74        74   982     494.9 
  75        75   981     485.6 
  76        76   980     506.8 
  77        77   980     517.3 
  78        78   982     479.0 
  79        79   982     466.7 
  80        80   980     483.3 
  81        81   981     533.1 
  82        82   980     497.3 
  83        83   982     480.7 
  84        84   980     462.6 
  85        85   980     500.7 
  86        86   980     505.8 
  87        87   982     505.8 
  88        88   981     464.8 
  89        89   980     495.6 
  90        90   981     516.1 
  91        91   981     504.6 
  92        92   982     480.0 
  93        93   980     473.1 
  94        94   980     511.6 
  95        95   980     476.9 
  96        96   982     488.1 
  97        97   981     435.6 
  98        98   980     477.6 
  99        99   980     509.9 
 100       100   980     481.3 
 101       101   981     449.5 
 102       102   980     510.9 
 103       103   980     509.5 
 104       104   980     521.1 
 105       105   982     520.7 
 106       106   980     475.5 
 107       107   980     471.1 
 108       108   980     507.5 
 109       109   981     537.5 
 110       110   980     465.0 
 111       111   980     472.8 
 112       112   980     540.8 
 113       113   980     510.2 
 114       114   981     448.5 
 115       115   980     465.0 
 116       116   980     491.5 
 117       117   980     528.9 
 118       118   980     499.7 
 119       119   980     478.9 
 120       120   979     506.6 
 121       121   980     513.3 
 122       122   980     536.4 
 123       123   981     482.2 
 124       124   979     492.3 
 125       125   980     509.9 
 126       126   980     516.7 
 127       127   981     501.2 
 128       128   980     476.2 
 129       129   979     461.0 
 130       130   979     501.2 
 131       131   980     492.9 
 132       132   980     520.1 
 133       133   979     452.2 
 134       134   979     490.3 
 135       135   979     508.7 
 136       136   980     475.9 
 137       137   979     494.4 
 138       138   979     470.2 
 139       139   979     535.9 
 140       140   980     489.1 
 141       141   980     446.6 
 142       142   978     451.6 
 143       143   980     516.0 
 144       144   979     495.4 
 145       145   980     466.3 
 146       146   978     461.1 
 147       147   979     458.0 
 148       148   979     521.6 
 149       149   979     524.0 
 150       150   979     524.0 
 151       210  1000     416.0 
 152       270   997     499.2 
 153       330  1000     508.0 
 154       390   996     429.0 
 155       450   996     565.9 
 156       510   996     345.4 
 157       570   994     491.6 
 158       630   998     415.2 
 159       810   983     486.9 
 160       990   980     511.9 
 161      1170   985     518.1 
 162      1350   986     577.8 
 163      1530   981     547.7 
 164      2070   980     430.6 
 165      2691   973     446.4 
 166      3405   978     444.4 
 167      4226   978     438.7 
 168      5170   976     389.7 
 169      6256   975     529.6 
 170      7505   974     545.5 
 171      8941   977     506.7 
 172     10592   975     450.3 
 173     12491   973     389.5 
 174     14675   979     504.6 
 175     17187   975     446.8 
 176     20076   974     508.2 
 177     23398   977     313.5 
 178     27218   979     352.1 
 179     31611   980     467.3 
 180     36663   980     285.0 
 181     42473   977     211.9 
 182     49155   978     440.4 
 183     56839   980     464.3 
 184     65676   977     316.3 
 185     75839   981     316.3 
