PC/104 FIRe Fluorometer 2.0.0
 4/ 8/2025     37112
LED Color:           blue
Gain:               2000
Sample Delay (msec):    10
Number Samples:   3
STF (usec):      150
STRP (#samples):       35
STRI (usec):       60
MTF (ms):        0
MTF (#samples):     0
MTRP (#samples):        0
MTRI (usec):      100
PQLen:     4
Ambient Light Source Power: Off
PAR (uMol/m^2/s):354.25
Comment:
Depth(m):  -0.7
Temperature(C):  71.7
Battery(V):  14.38

         Time    EX   Fl-Yield 
DATA--------------------------
   0         0     0       0.0 
   1         1   156     168.8 
   2         2   817     280.7 
   3         3   953     299.1 
   4         4   969     325.4 
   5         5   972     307.3 
   6         6   973     317.2 
   7         7   973     334.7 
   8         8   977     349.0 
   9         9   974     372.3 
  10        10   975     333.7 
  11        11   976     326.8 
  12        12   977     361.0 
  13        13   977     370.2 
  14        14   977     356.2 
  15        15   977     384.2 
  16        16   978     334.0 
  17        17   980     364.6 
  18        18   977     342.9 
  19        19   978     374.6 
  20        20   979     367.0 
  21        21   980     370.7 
  22        22   979     412.7 
  23        23   979     354.1 
  24        24   979     330.3 
  25        25   980     334.4 
  26        26   980     393.2 
  27        27   978     414.1 
  28        28   980     358.8 
  29        29   980     376.9 
  30        30   980     383.3 
  31        31   980     394.6 
  32        32   980     363.9 
  33        33   980     343.2 
  34        34   981     407.7 
  35        35   981     391.8 
  36        36   980     392.5 
  37        37   981     360.9 
  38        38   980     358.2 
  39        39   981     396.5 
  40        40   980     410.2 
  41        41   981     414.2 
  42        42   980     410.9 
  43        43   982     388.3 
  44        44   981     391.8 
  45        45   980     411.9 
  46        46   981     423.7 
  47        47   982     395.5 
  48        48   982     383.6 
  49        49   981     392.5 
  50        50   981     409.8 
  51        51   980     376.2 
  52        52   983     410.0 
  53        53   981     375.1 
  54        54   981     413.9 
  55        55   981     372.1 
  56        56   982     410.0 
  57        57   982     406.0 
  58        58   981     389.4 
  59        59   981     401.6 
  60        60   980     349.3 
  61        61   983     412.0 
  62        62   981     446.8 
  63        63   981     378.2 
  64        64   981     375.5 
  65        65   982     396.8 
  66        66   982     420.6 
  67        67   981     386.7 
  68        68   981     424.1 
  69        69   981     360.9 
  70        70   983     444.9 
  71        71   980     494.2 
  72        72   981     436.6 
  73        73   981     447.2 
  74        74   982     452.5 
  75        75   981     480.5 
  76        76   980     445.6 
  77        77   980     465.0 
  78        78   982     448.1 
  79        79   982     504.1 
  80        80   980     495.2 
  81        81   981     467.2 
  82        82   980     398.3 
  83        83   982     517.7 
  84        84   980     493.9 
  85        85   980     474.8 
  86        86   980     431.6 
  87        87   982     456.6 
  88        88   981     468.6 
  89        89   980     442.2 
  90        90   981     460.8 
  91        91   981     444.1 
  92        92   982     474.5 
  93        93   980     450.3 
  94        94   980     413.6 
  95        95   980     471.4 
  96        96   982     504.1 
  97        97   981     424.4 
  98        98   980     471.8 
  99        99   980     458.2 
 100       100   980     421.8 
 101       101   981     452.6 
 102       102   980     430.3 
 103       103   980     468.0 
 104       104   980     443.2 
 105       105   982     467.8 
 106       106   980     433.7 
 107       107   980     462.9 
 108       108   980     431.0 
 109       109   981     453.6 
 110       110   980     476.2 
 111       111   980     415.3 
 112       112   980     441.8 
 113       113   980     442.5 
 114       114   981     502.2 
 115       115   980     413.9 
 116       116   980     434.0 
 117       117   980     403.1 
 118       118   980     482.3 
 119       119   980     437.1 
 120       120   979     441.9 
 121       121   980     448.3 
 122       122   980     500.3 
 123       123   981     475.0 
 124       124   979     466.1 
 125       125   980     479.3 
 126       126   980     449.7 
 127       127   981     506.3 
 128       128   980     454.8 
 129       129   979     454.5 
 130       130   979     441.6 
 131       131   980     501.0 
 132       132   980     441.2 
 133       133   979     437.9 
 134       134   979     386.8 
 135       135   979     410.3 
 136       136   980     449.3 
 137       137   979     418.8 
 138       138   979     382.0 
 139       139   979     440.2 
 140       140   980     440.1 
 141       141   980     406.1 
 142       142   978     479.9 
 143       143   980     396.3 
 144       144   979     448.1 
 145       145   980     424.1 
 146       146   978     430.1 
 147       147   979     410.3 
 148       148   979     442.3 
 149       149   979     376.2 
 150       150   979     376.2 
 151       210  1000     504.3 
 152       270   997     410.2 
 153       330  1000     554.3 
 154       390   996     360.1 
 155       450   996     532.1 
 156       510   996     400.3 
 157       570   994     414.5 
 158       630   998     420.8 
 159       810   983     333.7 
 160       990   980     374.5 
 161      1170   985     426.1 
 162      1350   986     549.0 
 163      1530   981     387.0 
 164      2070   980     373.1 
 165      2691   973     330.9 
 166      3405   978     334.4 
 167      4226   978     413.4 
 168      5170   976     420.1 
 169      6256   975     275.2 
 170      7505   974     377.5 
 171      8941   977     444.9 
 172     10592   975     346.3 
 173     12491   973     292.9 
 174     14675   979     364.0 
 175     17187   975     315.2 
 176     20076   974     499.0 
 177     23398   977     355.5 
 178     27218   979     331.3 
 179     31611   980     250.7 
 180     36663   980     421.8 
 181     42473   977     429.5 
 182     49155   978     343.6 
 183     56839   980     323.5 
 184     65676   977     310.8 
 185     75839   981     310.8 
   1         1   156     -55.6 
   2         2   817     459.4 
   3         3   953     464.8 
   4         4   969     471.6 
   5         5   972     488.0 
   6         6   973     444.3 
   7         7   973     467.6 
   8         8   977     478.0 
   9         9   974     526.0 
  10        10   975     515.9 
  11        11   976     495.9 
  12        12   977     509.7 
  13        13   977     559.2 
  14        14   977     537.7 
  15        15   977     536.3 
  16        16   978     507.5 
  17        17   980     545.6 
  18        18   977     525.4 
  19        19   978     533.7 
  20        20   979     488.3 
  21        21   980     513.9 
  22        22   979     498.8 
  23        23   979     534.2 
  24        24   979     440.2 
  25        25   980     459.5 
  26        26   980     515.3 
  27        27   978     490.5 
  28        28   980     473.8 
  29        29   980     493.5 
  30        30   980     527.9 
  31        31   980     478.9 
  32        32   980     492.9 
  33        33   980     471.4 
  34        34   981     487.9 
  35        35   981     504.2 
  36        36   980     520.7 
  37        37   981     443.4 
  38        38   980     485.7 
  39        39   981     516.1 
  40        40   980     510.9 
  41        41   981     462.5 
  42        42   980     488.8 
  43        43   982     476.9 
  44        44   981     542.6 
  45        45   980     534.0 
  46        46   981     493.7 
  47        47   982     533.3 
  48        48   982     479.3 
  49        49   981     514.4 
  50        50   981     517.2 
  51        51   980     472.1 
  52        52   983     461.5 
  53        53   981     482.5 
  54        54   981     521.2 
  55        55   981     500.8 
  56        56   982     519.7 
  57        57   982     524.1 
  58        58   981     501.9 
  59        59   981     518.5 
  60        60   980     478.9 
  61        61   983     545.3 
  62        62   981     524.3 
  63        63   981     511.4 
  64        64   981     473.3 
  65        65   982     537.0 
  66        66   982     486.8 
  67        67   981     464.5 
  68        68   981     473.3 
  69        69   981     509.7 
  70        70   983     494.4 
  71        71   980     557.8 
  72        72   981     478.8 
  73        73   981     515.1 
  74        74   982     546.8 
  75        75   981     514.4 
  76        76   980     494.9 
  77        77   980     472.4 
  78        78   982     525.1 
  79        79   982     501.7 
  80        80   980     454.8 
  81        81   981     463.8 
  82        82   980     522.8 
  83        83   982     517.0 
  84        84   980     501.0 
  85        85   980     492.5 
  86        86   980     515.3 
  87        87   982     480.3 
  88        88   981     539.6 
  89        89   980     505.4 
  90        90   981     449.2 
  91        91   981     505.6 
  92        92   982     546.5 
  93        93   980     506.8 
  94        94   980     533.3 
  95        95   980     517.0 
  96        96   982     585.9 
  97        97   981     538.2 
  98        98   980     542.5 
  99        99   980     519.7 
 100       100   980     583.3 
 101       101   981     500.5 
 102       102   980     552.0 
 103       103   980     550.0 
 104       104   980     526.2 
 105       105   982     538.0 
 106       106   980     530.6 
 107       107   980     505.4 
 108       108   980     553.4 
 109       109   981     570.5 
 110       110   980     527.9 
 111       111   980     546.6 
 112       112   980     553.4 
 113       113   980     593.9 
 114       114   981     543.7 
 115       115   980     524.1 
 116       116   980     544.2 
 117       117   980     534.4 
 118       118   980     542.2 
 119       119   980     548.0 
 120       120   979     480.8 
 121       121   980     507.1 
 122       122   980     536.1 
 123       123   981     542.6 
 124       124   979     517.2 
 125       125   980     497.3 
 126       126   980     530.6 
 127       127   981     510.7 
 128       128   980     528.6 
 129       129   979     488.6 
 130       130   979     506.6 
 131       131   980     545.2 
 132       132   980     518.0 
 133       133   979     508.7 
 134       134   979     534.2 
 135       135   979     511.4 
 136       136   980     517.3 
 137       137   979     532.2 
 138       138   979     512.1 
 139       139   979     545.8 
 140       140   980     522.8 
 141       141   980     522.1 
 142       142   978     503.4 
 143       143   980     511.6 
 144       144   979     533.2 
 145       145   980     515.0 
 146       146   978     466.9 
 147       147   979     522.6 
 148       148   979     522.0 
 149       149   979     488.6 
 150       150   979     488.6 
 151       210  1000     539.0 
 152       270   997     538.6 
 153       330  1000     551.3 
 154       390   996     557.9 
 155       450   996     570.3 
 156       510   996     607.8 
 157       570   994     555.7 
 158       630   998     428.2 
 159       810   983     601.6 
 160       990   980     655.1 
 161      1170   985     529.9 
 162      1350   986     550.0 
 163      1530   981     546.7 
 164      2070   980     626.5 
 165      2691   973     498.8 
 166      3405   978     544.6 
 167      4226   978     691.2 
 168      5170   976     586.7 
 169      6256   975     564.4 
 170      7505   974     522.6 
 171      8941   977     483.5 
 172     10592   975     474.2 
 173     12491   973     498.5 
 174     14675   979     344.9 
 175     17187   975     474.5 
 176     20076   974     499.7 
 177     23398   977     484.1 
 178     27218   979     448.4 
 179     31611   980     465.0 
 180     36663   980     492.9 
 181     42473   977     400.2 
 182     49155   978     404.6 
 183     56839   980     330.6 
 184     65676   977     496.8 
 185     75839   981     496.8 
