PC/104 FIRe Fluorometer 2.0.0
 4/ 8/2025     40307
LED Color:           blue
Gain:               1800
Sample Delay (msec):    10
Number Samples:   3
STF (usec):      150
STRP (#samples):       35
STRI (usec):       60
MTF (ms):        0
MTF (#samples):     0
MTRP (#samples):        0
MTRI (usec):      100
PQLen:     4
Ambient Light Source Power: Off
PAR (uMol/m^2/s):629.29
Comment:
Depth(m):  -2.0
Temperature(C):  76.2
Battery(V):  14.02

         Time    EX   Fl-Yield 
DATA--------------------------
   0         0     0       0.0 
   1         1   156     226.5 
   2         2   817     244.0 
   3         3   953     220.4 
   4         4   969     275.2 
   5         5   972     270.6 
   6         6   973     263.8 
   7         7   973     277.1 
   8         8   977     296.1 
   9         9   974     278.6 
  10        10   975     317.9 
  11        11   976     275.6 
  12        12   977     339.5 
  13        13   977     341.2 
  14        14   977     316.6 
  15        15   977     284.9 
  16        16   978     318.3 
  17        17   980     348.6 
  18        18   977     308.4 
  19        19   978     324.8 
  20        20   979     339.5 
  21        21   980     375.5 
  22        22   979     329.6 
  23        23   979     360.9 
  24        24   979     335.4 
  25        25   980     372.4 
  26        26   980     351.7 
  27        27   978     343.6 
  28        28   980     346.9 
  29        29   980     366.0 
  30        30   980     383.0 
  31        31   980     366.7 
  32        32   980     337.8 
  33        33   980     359.5 
  34        34   981     386.3 
  35        35   981     384.6 
  36        36   980     381.3 
  37        37   981     374.8 
  38        38   980     379.3 
  39        39   981     399.3 
  40        40   980     399.3 
  41        41   981     388.0 
  42        42   980     437.1 
  43        43   982     431.1 
  44        44   981     399.3 
  45        45   980     425.2 
  46        46   981     429.5 
  47        47   982     406.0 
  48        48   982     432.8 
  49        49   981     413.9 
  50        50   981     396.5 
  51        51   980     455.1 
  52        52   983     448.3 
  53        53   981     442.4 
  54        54   981     412.5 
  55        55   981     456.7 
  56        56   982     457.9 
  57        57   982     441.3 
  58        58   981     421.0 
  59        59   981     401.0 
  60        60   980     439.8 
  61        61   983     456.1 
  62        62   981     435.6 
  63        63   981     427.1 
  64        64   981     451.2 
  65        65   982     430.4 
  66        66   982     428.7 
  67        67   981     405.4 
  68        68   981     440.4 
  69        69   981     469.2 
  70        70   983     430.0 
  71        71   980     420.1 
  72        72   981     448.5 
  73        73   981     432.6 
  74        74   982     442.6 
  75        75   981     415.6 
  76        76   980     419.7 
  77        77   980     451.7 
  78        78   982     419.2 
  79        79   982     388.3 
  80        80   980     403.7 
  81        81   981     403.0 
  82        82   980     451.4 
  83        83   982     408.0 
  84        84   980     424.1 
  85        85   980     409.5 
  86        86   980     436.4 
  87        87   982     418.2 
  88        88   981     419.3 
  89        89   980     412.6 
  90        90   981     429.2 
  91        91   981     423.0 
  92        92   982     403.9 
  93        93   980     412.2 
  94        94   980     411.2 
  95        95   980     427.9 
  96        96   982     402.2 
  97        97   981     419.6 
  98        98   980     395.2 
  99        99   980     416.3 
 100       100   980     424.1 
 101       101   981     415.2 
 102       102   980     373.1 
 103       103   980     411.9 
 104       104   980     418.4 
 105       105   982     414.1 
 106       106   980     386.4 
 107       107   980     386.4 
 108       108   980     437.1 
 109       109   981     405.0 
 110       110   980     383.3 
 111       111   980     388.8 
 112       112   980     413.3 
 113       113   980     431.3 
 114       114   981     396.9 
 115       115   980     380.6 
 116       116   980     373.1 
 117       117   980     429.6 
 118       118   980     400.3 
 119       119   980     374.8 
 120       120   979     400.7 
 121       121   980     372.1 
 122       122   980     394.9 
 123       123   981     380.6 
 124       124   979     392.2 
 125       125   980     413.9 
 126       126   980     400.7 
 127       127   981     380.9 
 128       128   980     379.9 
 129       129   979     399.7 
 130       130   979     385.8 
 131       131   980     375.9 
 132       132   980     372.8 
 133       133   979     413.3 
 134       134   979     410.3 
 135       135   979     415.0 
 136       136   980     388.1 
 137       137   979     371.1 
 138       138   979     399.4 
 139       139   979     389.2 
 140       140   980     402.0 
 141       141   980     405.8 
 142       142   978     413.8 
 143       143   980     376.5 
 144       144   979     403.1 
 145       145   980     395.2 
 146       146   978     413.8 
 147       147   979     399.4 
 148       148   979     407.9 
 149       149   979     419.8 
 150       150   979     419.8 
 151       210  1000     482.7 
 152       270   997     402.5 
 153       330  1000     316.7 
 154       390   996     434.4 
 155       450   996     386.2 
 156       510   996     437.4 
 157       570   994     308.5 
 158       630   998     337.7 
 159       810   983     403.9 
 160       990   980     338.4 
 161      1170   985     345.9 
 162      1350   986     322.9 
 163      1530   981     387.4 
 164      2070   980     342.2 
 165      2691   973     299.1 
 166      3405   978     282.5 
 167      4226   978     350.7 
 168      5170   976     234.3 
 169      6256   975     316.6 
 170      7505   974     323.1 
 171      8941   977     268.5 
 172     10592   975     239.3 
 173     12491   973     327.5 
 174     14675   979     298.9 
 175     17187   975     259.1 
 176     20076   974     265.9 
 177     23398   977     283.2 
 178     27218   979     273.7 
 179     31611   980     326.9 
 180     36663   980     325.9 
 181     42473   977     317.0 
 182     49155   978     374.6 
 183     56839   980     322.1 
 184     65676   977     272.9 
 185     75839   981     272.9 
   1         1   156     123.9 
   2         2   817     425.5 
   3         3   953     433.4 
   4         4   969     436.2 
   5         5   972     404.3 
   6         6   973     411.8 
   7         7   973     389.9 
   8         8   977     425.5 
   9         9   974     434.6 
  10        10   975     455.4 
  11        11   976     463.1 
  12        12   977     485.5 
  13        13   977     497.4 
  14        14   977     468.4 
  15        15   977     489.9 
  16        16   978     496.3 
  17        17   980     482.3 
  18        18   977     492.7 
  19        19   978     474.1 
  20        20   979     491.3 
  21        21   980     479.9 
  22        22   979     468.5 
  23        23   979     436.2 
  24        24   979     448.4 
  25        25   980     451.0 
  26        26   980     450.0 
  27        27   978     440.4 
  28        28   980     450.3 
  29        29   980     454.8 
  30        30   980     447.3 
  31        31   980     451.0 
  32        32   980     472.4 
  33        33   980     481.6 
  34        34   981     484.9 
  35        35   981     465.9 
  36        36   980     450.0 
  37        37   981     477.1 
  38        38   980     457.5 
  39        39   981     449.9 
  40        40   980     436.1 
  41        41   981     481.5 
  42        42   980     465.3 
  43        43   982     456.2 
  44        44   981     450.2 
  45        45   980     462.6 
  46        46   981     470.3 
  47        47   982     488.8 
  48        48   982     453.2 
  49        49   981     458.0 
  50        50   981     498.8 
  51        51   980     484.7 
  52        52   983     488.6 
  53        53   981     461.4 
  54        54   981     470.6 
  55        55   981     489.3 
  56        56   982     471.1 
  57        57   982     466.1 
  58        58   981     512.1 
  59        59   981     481.5 
  60        60   980     510.2 
  61        61   983     505.6 
  62        62   981     479.8 
  63        63   981     487.9 
  64        64   981     486.6 
  65        65   982     523.1 
  66        66   982     478.6 
  67        67   981     510.0 
  68        68   981     515.8 
  69        69   981     517.5 
  70        70   983     498.5 
  71        71   980     490.1 
  72        72   981     505.9 
  73        73   981     520.9 
  74        74   982     491.9 
  75        75   981     510.7 
  76        76   980     497.3 
  77        77   980     496.9 
  78        78   982     508.8 
  79        79   982     464.4 
  80        80   980     521.8 
  81        81   981     513.8 
  82        82   980     516.0 
  83        83   982     477.6 
  84        84   980     493.5 
  85        85   980     478.9 
  86        86   980     493.2 
  87        87   982     497.3 
  88        88   981     465.9 
  89        89   980     488.1 
  90        90   981     482.2 
  91        91   981     486.6 
  92        92   982     461.0 
  93        93   980     467.0 
  94        94   980     467.0 
  95        95   980     460.2 
  96        96   982     458.2 
  97        97   981     463.5 
  98        98   980     466.7 
  99        99   980     484.0 
 100       100   980     448.3 
 101       101   981     469.2 
 102       102   980     453.4 
 103       103   980     479.3 
 104       104   980     460.2 
 105       105   982     447.7 
 106       106   980     449.0 
 107       107   980     484.0 
 108       108   980     455.4 
 109       109   981     471.6 
 110       110   980     443.5 
 111       111   980     485.0 
 112       112   980     459.9 
 113       113   980     469.0 
 114       114   981     447.2 
 115       115   980     454.8 
 116       116   980     452.0 
 117       117   980     477.6 
 118       118   980     449.3 
 119       119   980     446.6 
 120       120   979     480.8 
 121       121   980     461.6 
 122       122   980     448.0 
 123       123   981     443.8 
 124       124   979     454.2 
 125       125   980     467.0 
 126       126   980     461.9 
 127       127   981     448.9 
 128       128   980     477.2 
 129       129   979     451.8 
 130       130   979     469.2 
 131       131   980     436.1 
 132       132   980     448.0 
 133       133   979     477.4 
 134       134   979     469.5 
 135       135   979     445.0 
 136       136   980     444.2 
 137       137   979     471.9 
 138       138   979     487.2 
 139       139   979     472.3 
 140       140   980     453.4 
 141       141   980     479.3 
 142       142   978     476.1 
 143       143   980     448.0 
 144       144   979     459.7 
 145       145   980     445.2 
 146       146   978     491.5 
 147       147   979     465.8 
 148       148   979     458.0 
 149       149   979     477.0 
 150       150   979     477.0 
 151       210  1000     557.0 
 152       270   997     522.2 
 153       330  1000     390.3 
 154       390   996     471.9 
 155       450   996     510.7 
 156       510   996     488.6 
 157       570   994     482.9 
 158       630   998     408.5 
 159       810   983     577.8 
 160       990   980     455.8 
 161      1170   985     466.0 
 162      1350   986     490.2 
 163      1530   981     485.6 
 164      2070   980     424.5 
 165      2691   973     466.3 
 166      3405   978     423.0 
 167      4226   978     532.7 
 168      5170   976     432.4 
 169      6256   975     490.3 
 170      7505   974     482.2 
 171      8941   977     459.9 
 172     10592   975     433.5 
 173     12491   973     431.3 
 174     14675   979     398.0 
 175     17187   975     462.2 
 176     20076   974     417.2 
 177     23398   977     439.1 
 178     27218   979     423.6 
 179     31611   980     371.4 
 180     36663   980     425.9 
 181     42473   977     410.4 
 182     49155   978     397.8 
 183     56839   980     432.0 
 184     65676   977     392.7 
 185     75839   981     392.7 
