PC/104 FIRe Fluorometer 2.0.0
 4/ 8/2025     37167
LED Color:           blue
Gain:               1900
Sample Delay (msec):    10
Number Samples:   3
STF (usec):      150
STRP (#samples):       35
STRI (usec):       60
MTF (ms):        0
MTF (#samples):     0
MTRP (#samples):        0
MTRI (usec):      100
PQLen:     4
Ambient Light Source Power: Off
PAR (uMol/m^2/s):326.57
Comment:
Depth(m):  -0.7
Temperature(C):  72.9
Battery(V):  14.38

         Time    EX   Fl-Yield 
DATA--------------------------
   0         0     0       0.0 
   1         1   156     134.6 
   2         2   817     249.3 
   3         3   953     286.1 
   4         4   969     293.1 
   5         5   972     278.8 
   6         6   973     273.0 
   7         7   973     326.8 
   8         8   977     350.4 
   9         9   974     307.0 
  10        10   975     324.4 
  11        11   976     290.6 
  12        12   977     328.2 
  13        13   977     339.1 
  14        14   977     341.2 
  15        15   977     322.4 
  16        16   978     324.8 
  17        17   980     384.7 
  18        18   977     361.3 
  19        19   978     366.4 
  20        20   979     341.2 
  21        21   980     421.8 
  22        22   979     391.2 
  23        23   979     392.6 
  24        24   979     365.3 
  25        25   980     432.3 
  26        26   980     407.8 
  27        27   978     401.5 
  28        28   980     377.9 
  29        29   980     409.2 
  30        30   980     435.4 
  31        31   980     397.3 
  32        32   980     386.4 
  33        33   980     406.5 
  34        34   981     437.0 
  35        35   981     414.5 
  36        36   980     412.6 
  37        37   981     407.1 
  38        38   980     435.0 
  39        39   981     456.3 
  40        40   980     402.4 
  41        41   981     391.1 
  42        42   980     434.0 
  43        43   982     459.6 
  44        44   981     427.5 
  45        45   980     405.1 
  46        46   981     393.5 
  47        47   982     420.2 
  48        48   982     451.1 
  49        49   981     433.9 
  50        50   981     401.0 
  51        51   980     439.5 
  52        52   983     447.3 
  53        53   981     424.1 
  54        54   981     412.8 
  55        55   981     433.2 
  56        56   982     438.2 
  57        57   982     449.1 
  58        58   981     463.8 
  59        59   981     406.7 
  60        60   980     427.9 
  61        61   983     447.3 
  62        62   981     457.4 
  63        63   981     408.4 
  64        64   981     445.1 
  65        65   982     440.9 
  66        66   982     427.0 
  67        67   981     414.5 
  68        68   981     412.2 
  69        69   981     468.6 
  70        70   983     446.6 
  71        71   980     429.6 
  72        72   981     411.5 
  73        73   981     430.2 
  74        74   982     459.3 
  75        75   981     389.4 
  76        76   980     405.1 
  77        77   980     412.6 
  78        78   982     432.1 
  79        79   982     383.9 
  80        80   980     425.5 
  81        81   981     380.9 
  82        82   980     425.9 
  83        83   982     433.1 
  84        84   980     436.1 
  85        85   980     408.2 
  86        86   980     417.0 
  87        87   982     430.4 
  88        88   981     425.8 
  89        89   980     406.1 
  90        90   981     447.2 
  91        91   981     393.8 
  92        92   982     416.8 
  93        93   980     388.8 
  94        94   980     352.4 
  95        95   980     410.9 
  96        96   982     426.3 
  97        97   981     395.2 
  98        98   980     387.4 
  99        99   980     394.9 
 100       100   980     452.7 
 101       101   981     408.8 
 102       102   980     397.3 
 103       103   980     384.0 
 104       104   980     404.1 
 105       105   982     435.2 
 106       106   980     378.6 
 107       107   980     404.1 
 108       108   980     371.4 
 109       109   981     439.3 
 110       110   980     398.3 
 111       111   980     412.6 
 112       112   980     381.0 
 113       113   980     402.0 
 114       114   981     436.3 
 115       115   980     412.2 
 116       116   980     396.3 
 117       117   980     396.6 
 118       118   980     392.5 
 119       119   980     411.2 
 120       120   979     375.9 
 121       121   980     384.4 
 122       122   980     429.6 
 123       123   981     383.3 
 124       124   979     387.1 
 125       125   980     386.1 
 126       126   980     403.7 
 127       127   981     438.7 
 128       128   980     386.1 
 129       129   979     383.7 
 130       130   979     398.0 
 131       131   980     454.8 
 132       132   980     434.4 
 133       133   979     406.9 
 134       134   979     407.2 
 135       135   979     430.7 
 136       136   980     416.3 
 137       137   979     398.0 
 138       138   979     389.2 
 139       139   979     396.7 
 140       140   980     424.1 
 141       141   980     419.4 
 142       142   978     410.7 
 143       143   980     434.7 
 144       144   979     416.4 
 145       145   980     434.4 
 146       146   978     423.3 
 147       147   979     448.8 
 148       148   979     422.9 
 149       149   979     453.5 
 150       150   979     453.5 
 151       210  1000     446.3 
 152       270   997     463.1 
 153       330  1000     444.7 
 154       390   996     412.0 
 155       450   996     331.0 
 156       510   996     502.0 
 157       570   994     405.1 
 158       630   998     324.0 
 159       810   983     366.2 
 160       990   980     398.6 
 161      1170   985     422.7 
 162      1350   986     356.0 
 163      1530   981     399.6 
 164      2070   980     332.0 
 165      2691   973     340.2 
 166      3405   978     360.9 
 167      4226   978     220.9 
 168      5170   976     245.2 
 169      6256   975     287.9 
 170      7505   974     389.5 
 171      8941   977     308.4 
 172     10592   975     358.3 
 173     12491   973     306.6 
 174     14675   979     338.1 
 175     17187   975     379.8 
 176     20076   974     312.5 
 177     23398   977     359.3 
 178     27218   979     298.6 
 179     31611   980     322.4 
 180     36663   980     332.7 
 181     42473   977     333.7 
 182     49155   978     311.9 
 183     56839   980     299.0 
 184     65676   977     355.9 
 185     75839   981     355.9 
   1         1   156     -36.3 
   2         2   817     304.4 
   3         3   953     324.9 
   4         4   969     317.2 
   5         5   972     278.5 
   6         6   973     283.3 
   7         7   973     317.9 
   8         8   977     323.4 
   9         9   974     282.0 
  10        10   975     359.3 
  11        11   976     348.4 
  12        12   977     375.6 
  13        13   977     355.2 
  14        14   977     337.8 
  15        15   977     397.5 
  16        16   978     356.5 
  17        17   980     360.9 
  18        18   977     338.1 
  19        19   978     326.5 
  20        20   979     348.7 
  21        21   980     350.0 
  22        22   979     309.5 
  23        23   979     318.4 
  24        24   979     329.2 
  25        25   980     354.4 
  26        26   980     346.6 
  27        27   978     322.8 
  28        28   980     308.8 
  29        29   980     329.6 
  30        30   980     319.0 
  31        31   980     301.0 
  32        32   980     326.2 
  33        33   980     330.3 
  34        34   981     307.2 
  35        35   981     299.0 
  36        36   980     365.6 
  37        37   981     317.0 
  38        38   980     374.1 
  39        39   981     299.0 
  40        40   980     283.3 
  41        41   981     293.6 
  42        42   980     306.8 
  43        43   982     311.6 
  44        44   981     306.2 
  45        45   980     285.4 
  46        46   981     332.3 
  47        47   982     362.9 
  48        48   982     306.5 
  49        49   981     296.6 
  50        50   981     308.5 
  51        51   980     355.4 
  52        52   983     354.0 
  53        53   981     305.5 
  54        54   981     349.0 
  55        55   981     330.6 
  56        56   982     350.6 
  57        57   982     323.5 
  58        58   981     304.8 
  59        59   981     351.0 
  60        60   980     373.1 
  61        61   983     337.4 
  62        62   981     335.0 
  63        63   981     376.8 
  64        64   981     347.9 
  65        65   982     346.2 
  66        66   982     340.8 
  67        67   981     380.2 
  68        68   981     344.5 
  69        69   981     344.5 
  70        70   983     317.7 
  71        71   980     349.7 
  72        72   981     347.6 
  73        73   981     344.5 
  74        74   982     305.8 
  75        75   981     337.4 
  76        76   980     332.0 
  77        77   980     372.8 
  78        78   982     334.0 
  79        79   982     306.5 
  80        80   980     327.9 
  81        81   981     341.8 
  82        82   980     350.7 
  83        83   982     361.8 
  84        84   980     336.4 
  85        85   980     376.2 
  86        86   980     373.5 
  87        87   982     330.6 
  88        88   981     307.8 
  89        89   980     321.1 
  90        90   981     337.8 
  91        91   981     345.9 
  92        92   982     320.4 
  93        93   980     331.0 
  94        94   980     339.5 
  95        95   980     336.4 
  96        96   982     350.3 
  97        97   981     332.7 
  98        98   980     354.8 
  99        99   980     351.0 
 100       100   980     344.6 
 101       101   981     302.8 
 102       102   980     368.7 
 103       103   980     351.0 
 104       104   980     374.1 
 105       105   982     360.1 
 106       106   980     340.8 
 107       107   980     370.1 
 108       108   980     375.5 
 109       109   981     340.1 
 110       110   980     361.9 
 111       111   980     332.7 
 112       112   980     351.0 
 113       113   980     399.0 
 114       114   981     338.1 
 115       115   980     330.3 
 116       116   980     375.5 
 117       117   980     379.6 
 118       118   980     352.0 
 119       119   980     332.7 
 120       120   979     329.2 
 121       121   980     377.6 
 122       122   980     363.3 
 123       123   981     314.3 
 124       124   979     367.0 
 125       125   980     335.4 
 126       126   980     363.3 
 127       127   981     323.8 
 128       128   980     315.0 
 129       129   979     363.0 
 130       130   979     368.1 
 131       131   980     363.3 
 132       132   980     331.6 
 133       133   979     377.3 
 134       134   979     343.2 
 135       135   979     360.6 
 136       136   980     338.8 
 137       137   979     338.8 
 138       138   979     334.7 
 139       139   979     359.6 
 140       140   980     352.7 
 141       141   980     315.0 
 142       142   978     339.8 
 143       143   980     366.0 
 144       144   979     364.7 
 145       145   980     346.6 
 146       146   978     352.8 
 147       147   979     341.5 
 148       148   979     383.4 
 149       149   979     328.2 
 150       150   979     328.2 
 151       210  1000     318.0 
 152       270   997     361.8 
 153       330  1000     336.0 
 154       390   996     439.4 
 155       450   996     339.7 
 156       510   996     375.8 
 157       570   994     441.0 
 158       630   998     340.7 
 159       810   983     378.1 
 160       990   980     443.9 
 161      1170   985     367.2 
 162      1350   986     237.0 
 163      1530   981     319.4 
 164      2070   980     374.8 
 165      2691   973     298.4 
 166      3405   978     428.4 
 167      4226   978     289.0 
 168      5170   976     317.6 
 169      6256   975     299.5 
 170      7505   974     369.6 
 171      8941   977     282.2 
 172     10592   975     323.4 
 173     12491   973     323.4 
 174     14675   979     270.7 
 175     17187   975     351.1 
 176     20076   974     315.2 
 177     23398   977     362.3 
 178     27218   979     248.2 
 179     31611   980     307.1 
 180     36663   980     254.1 
 181     42473   977     285.9 
 182     49155   978     340.1 
 183     56839   980     357.8 
 184     65676   977     243.9 
 185     75839   981     243.9 
