PC/104 FIRe Fluorometer 2.0.0
 4/ 8/2025     39843
LED Color:           blue
Gain:               1900
Sample Delay (msec):    10
Number Samples:   3
STF (usec):      150
STRP (#samples):       35
STRI (usec):       60
MTF (ms):        0
MTF (#samples):     0
MTRP (#samples):        0
MTRI (usec):      100
PQLen:     4
Ambient Light Source Power: Off
PAR (uMol/m^2/s):607.86
Comment:
Depth(m):  -1.9
Temperature(C):  75.6
Battery(V):  14.08

         Time    EX   Fl-Yield 
DATA--------------------------
   0         0     0       0.0 
   1         1   156      17.1 
   2         2   817     216.6 
   3         3   953     295.2 
   4         4   969     261.1 
   5         5   972     246.6 
   6         6   973     260.0 
   7         7   973     297.7 
   8         8   977     304.3 
   9         9   974     296.4 
  10        10   975     273.2 
  11        11   976     331.6 
  12        12   977     323.4 
  13        13   977     300.9 
  14        14   977     290.3 
  15        15   977     334.7 
  16        16   978     368.1 
  17        17   980     353.7 
  18        18   977     344.9 
  19        19   978     298.2 
  20        20   979     390.9 
  21        21   980     358.2 
  22        22   979     324.5 
  23        23   979     334.0 
  24        24   979     379.6 
  25        25   980     394.2 
  26        26   980     334.7 
  27        27   978     332.7 
  28        28   980     330.6 
  29        29   980     357.5 
  30        30   980     376.5 
  31        31   980     353.1 
  32        32   980     339.8 
  33        33   980     394.2 
  34        34   981     398.6 
  35        35   981     332.3 
  36        36   980     368.4 
  37        37   981     402.7 
  38        38   980     385.0 
  39        39   981     370.0 
  40        40   980     355.1 
  41        41   981     367.7 
  42        42   980     394.2 
  43        43   982     348.9 
  44        44   981     368.7 
  45        45   980     406.1 
  46        46   981     389.7 
  47        47   982     381.5 
  48        48   982     346.9 
  49        49   981     383.6 
  50        50   981     379.9 
  51        51   980     413.6 
  52        52   983     366.6 
  53        53   981     350.7 
  54        54   981     360.5 
  55        55   981     366.0 
  56        56   982     385.6 
  57        57   982     347.3 
  58        58   981     355.4 
  59        59   981     411.8 
  60        60   980     368.0 
  61        61   983     375.4 
  62        62   981     329.3 
  63        63   981     383.3 
  64        64   981     400.3 
  65        65   982     374.4 
  66        66   982     340.5 
  67        67   981     354.4 
  68        68   981     376.1 
  69        69   981     387.0 
  70        70   983     344.9 
  71        71   980     345.9 
  72        72   981     379.9 
  73        73   981     393.5 
  74        74   982     385.6 
  75        75   981     359.2 
  76        76   980     388.1 
  77        77   980     404.1 
  78        78   982     371.7 
  79        79   982     348.9 
  80        80   980     394.6 
  81        81   981     416.2 
  82        82   980     365.6 
  83        83   982     325.5 
  84        84   980     371.4 
  85        85   980     381.0 
  86        86   980     398.6 
  87        87   982     405.0 
  88        88   981     345.6 
  89        89   980     381.3 
  90        90   981     406.0 
  91        91   981     357.1 
  92        92   982     355.4 
  93        93   980     361.6 
  94        94   980     400.3 
  95        95   980     393.2 
  96        96   982     326.2 
  97        97   981     371.7 
  98        98   980     374.8 
  99        99   980     405.8 
 100       100   980     332.3 
 101       101   981     328.6 
 102       102   980     366.7 
 103       103   980     421.4 
 104       104   980     414.6 
 105       105   982     354.0 
 106       106   980     396.6 
 107       107   980     428.9 
 108       108   980     401.7 
 109       109   981     354.7 
 110       110   980     391.5 
 111       111   980     404.8 
 112       112   980     426.5 
 113       113   980     403.7 
 114       114   981     402.0 
 115       115   980     394.6 
 116       116   980     422.4 
 117       117   980     435.7 
 118       118   980     386.4 
 119       119   980     401.7 
 120       120   979     449.8 
 121       121   980     445.2 
 122       122   980     373.5 
 123       123   981     402.7 
 124       124   979     424.6 
 125       125   980     424.5 
 126       126   980     413.3 
 127       127   981     402.7 
 128       128   980     424.8 
 129       129   979     447.7 
 130       130   979     404.5 
 131       131   980     395.6 
 132       132   980     366.0 
 133       133   979     495.1 
 134       134   979     441.3 
 135       135   979     387.8 
 136       136   980     408.8 
 137       137   979     404.2 
 138       138   979     427.3 
 139       139   979     408.6 
 140       140   980     386.7 
 141       141   980     378.2 
 142       142   978     409.3 
 143       143   980     454.4 
 144       144   979     403.8 
 145       145   980     383.7 
 146       146   978     456.7 
 147       147   979     468.8 
 148       148   979     390.9 
 149       149   979     403.5 
 150       150   979     403.5 
 151       210  1000     406.0 
 152       270   997     469.1 
 153       330  1000     339.0 
 154       390   996     395.6 
 155       450   996     426.0 
 156       510   996     463.9 
 157       570   994     427.6 
 158       630   998     331.3 
 159       810   983     377.8 
 160       990   980     407.5 
 161      1170   985     268.0 
 162      1350   986     408.4 
 163      1530   981     336.4 
 164      2070   980     258.5 
 165      2691   973     376.8 
 166      3405   978     406.6 
 167      4226   978     255.3 
 168      5170   976     347.7 
 169      6256   975     367.5 
 170      7505   974     334.0 
 171      8941   977     412.8 
 172     10592   975     362.4 
 173     12491   973     274.1 
 174     14675   979     259.8 
 175     17187   975     295.0 
 176     20076   974     252.2 
 177     23398   977     315.6 
 178     27218   979     297.2 
 179     31611   980     374.1 
 180     36663   980     345.6 
 181     42473   977     297.2 
 182     49155   978     345.3 
 183     56839   980     232.0 
 184     65676   977     317.3 
 185     75839   981     317.3 
   1         1   156     508.5 
   2         2   817     432.5 
   3         3   953     415.2 
   4         4   969     414.2 
   5         5   972     419.1 
   6         6   973     459.4 
   7         7   973     441.6 
   8         8   977     448.0 
   9         9   974     481.9 
  10        10   975     466.7 
  11        11   976     501.4 
  12        12   977     464.0 
  13        13   977     520.0 
  14        14   977     505.3 
  15        15   977     507.3 
  16        16   978     440.7 
  17        17   980     464.6 
  18        18   977     456.2 
  19        19   978     502.4 
  20        20   979     467.5 
  21        21   980     444.9 
  22        22   979     441.3 
  23        23   979     475.0 
  24        24   979     444.3 
  25        25   980     418.0 
  26        26   980     403.4 
  27        27   978     424.3 
  28        28   980     412.2 
  29        29   980     379.9 
  30        30   980     431.0 
  31        31   980     434.4 
  32        32   980     443.9 
  33        33   980     433.0 
  34        34   981     408.8 
  35        35   981     421.7 
  36        36   980     437.4 
  37        37   981     451.6 
  38        38   980     384.7 
  39        39   981     391.8 
  40        40   980     411.6 
  41        41   981     432.6 
  42        42   980     450.3 
  43        43   982     427.7 
  44        44   981     423.7 
  45        45   980     427.9 
  46        46   981     401.6 
  47        47   982     442.3 
  48        48   982     448.7 
  49        49   981     459.7 
  50        50   981     438.3 
  51        51   980     394.6 
  52        52   983     420.5 
  53        53   981     407.1 
  54        54   981     457.4 
  55        55   981     429.2 
  56        56   982     434.1 
  57        57   982     418.9 
  58        58   981     442.7 
  59        59   981     404.0 
  60        60   980     435.7 
  61        61   983     404.5 
  62        62   981     417.9 
  63        63   981     422.7 
  64        64   981     436.3 
  65        65   982     452.5 
  66        66   982     441.6 
  67        67   981     441.7 
  68        68   981     424.1 
  69        69   981     429.8 
  70        70   983     450.7 
  71        71   980     449.0 
  72        72   981     454.6 
  73        73   981     373.4 
  74        74   982     445.3 
  75        75   981     451.9 
  76        76   980     475.9 
  77        77   980     445.9 
  78        78   982     462.7 
  79        79   982     444.0 
  80        80   980     470.4 
  81        81   981     449.2 
  82        82   980     478.9 
  83        83   982     451.1 
  84        84   980     478.6 
  85        85   980     472.8 
  86        86   980     446.6 
  87        87   982     467.1 
  88        88   981     488.3 
  89        89   980     470.4 
  90        90   981     415.9 
  91        91   981     450.2 
  92        92   982     465.0 
  93        93   980     471.1 
  94        94   980     458.5 
  95        95   980     451.0 
  96        96   982     475.6 
  97        97   981     434.3 
  98        98   980     440.8 
  99        99   980     468.0 
 100       100   980     463.9 
 101       101   981     481.5 
 102       102   980     491.2 
 103       103   980     444.2 
 104       104   980     463.6 
 105       105   982     460.3 
 106       106   980     466.0 
 107       107   980     491.5 
 108       108   980     438.4 
 109       109   981     494.4 
 110       110   980     467.0 
 111       111   980     473.5 
 112       112   980     454.8 
 113       113   980     450.0 
 114       114   981     465.2 
 115       115   980     497.6 
 116       116   980     445.2 
 117       117   980     533.7 
 118       118   980     484.4 
 119       119   980     499.7 
 120       120   979     487.2 
 121       121   980     480.3 
 122       122   980     498.6 
 123       123   981     487.6 
 124       124   979     500.9 
 125       125   980     467.7 
 126       126   980     505.8 
 127       127   981     473.7 
 128       128   980     509.2 
 129       129   979     447.7 
 130       130   979     511.7 
 131       131   980     498.3 
 132       132   980     512.2 
 133       133   979     437.5 
 134       134   979     467.5 
 135       135   979     480.4 
 136       136   980     514.6 
 137       137   979     481.8 
 138       138   979     488.6 
 139       139   979     466.8 
 140       140   980     496.9 
 141       141   980     498.0 
 142       142   978     458.1 
 143       143   980     444.9 
 144       144   979     448.1 
 145       145   980     443.9 
 146       146   978     452.3 
 147       147   979     446.0 
 148       148   979     449.1 
 149       149   979     447.4 
 150       150   979     447.4 
 151       210  1000     452.7 
 152       270   997     455.4 
 153       330  1000     543.7 
 154       390   996     414.3 
 155       450   996     514.4 
 156       510   996     450.5 
 157       570   994     522.1 
 158       630   998     475.3 
 159       810   983     493.0 
 160       990   980     511.9 
 161      1170   985     497.1 
 162      1350   986     521.0 
 163      1530   981     406.7 
 164      2070   980     388.1 
 165      2691   973     548.8 
 166      3405   978     530.7 
 167      4226   978     415.5 
 168      5170   976     486.3 
 169      6256   975     421.9 
 170      7505   974     403.5 
 171      8941   977     437.4 
 172     10592   975     469.1 
 173     12491   973     427.2 
 174     14675   979     409.6 
 175     17187   975     378.5 
 176     20076   974     457.2 
 177     23398   977     416.9 
 178     27218   979     357.8 
 179     31611   980     394.9 
 180     36663   980     269.0 
 181     42473   977     260.7 
 182     49155   978     391.6 
 183     56839   980     361.9 
 184     65676   977     390.0 
 185     75839   981     390.0 
