PC/104 FIRe Fluorometer 2.0.0
 4/ 8/2025     33190
LED Color:           blue
Gain:               1800
Sample Delay (msec):    10
Number Samples:   3
STF (usec):      150
STRP (#samples):       35
STRI (usec):       60
MTF (ms):        0
MTF (#samples):     0
MTRP (#samples):        0
MTRI (usec):      100
PQLen:     4
Ambient Light Source Power: Off
PAR (uMol/m^2/s):422.33
Comment:
Depth(m):   1.1
Temperature(C):  65.9
Battery(V):  15.16

         Time    EX   Fl-Yield 
DATA--------------------------
   0         0     0       0.0 
   1         1   156     121.8 
   2         2   817     286.4 
   3         3   953     316.9 
   4         4   969     342.6 
   5         5   972     354.3 
   6         6   973     350.8 
   7         7   973     325.8 
   8         8   977     354.1 
   9         9   974     379.5 
  10        10   975     379.8 
  11        11   976     350.8 
  12        12   977     374.3 
  13        13   977     390.0 
  14        14   977     414.5 
  15        15   977     390.7 
  16        16   978     414.5 
  17        17   980     401.4 
  18        18   977     418.3 
  19        19   978     412.1 
  20        20   979     419.5 
  21        21   980     416.3 
  22        22   979     444.0 
  23        23   979     459.0 
  24        24   979     407.9 
  25        25   980     435.4 
  26        26   980     464.3 
  27        27   978     472.4 
  28        28   980     445.6 
  29        29   980     443.2 
  30        30   980     470.4 
  31        31   980     465.3 
  32        32   980     472.4 
  33        33   980     455.1 
  34        34   981     479.1 
  35        35   981     482.5 
  36        36   980     486.4 
  37        37   981     462.1 
  38        38   980     476.2 
  39        39   981     493.7 
  40        40   980     489.8 
  41        41   981     465.9 
  42        42   980     442.9 
  43        43   982     460.6 
  44        44   981     503.9 
  45        45   980     468.4 
  46        46   981     456.7 
  47        47   982     471.8 
  48        48   982     487.8 
  49        49   981     476.4 
  50        50   981     492.7 
  51        51   980     489.1 
  52        52   983     487.3 
  53        53   981     487.9 
  54        54   981     489.6 
  55        55   981     502.5 
  56        56   982     464.0 
  57        57   982     519.7 
  58        58   981     495.4 
  59        59   981     472.3 
  60        60   980     472.1 
  61        61   983     502.9 
  62        62   981     516.8 
  63        63   981     534.1 
  64        64   981     488.3 
  65        65   982     485.1 
  66        66   982     495.6 
  67        67   981     491.3 
  68        68   981     502.9 
  69        69   981     512.7 
  70        70   983     507.3 
  71        71   980     498.3 
  72        72   981     515.1 
  73        73   981     507.0 
  74        74   982     493.2 
  75        75   981     543.3 
  76        76   980     513.9 
  77        77   980     523.1 
  78        78   982     505.4 
  79        79   982     511.9 
  80        80   980     527.9 
  81        81   981     494.7 
  82        82   980     465.0 
  83        83   982     492.5 
  84        84   980     553.7 
  85        85   980     510.5 
  86        86   980     489.8 
  87        87   982     481.7 
  88        88   981     476.0 
  89        89   980     500.7 
  90        90   981     508.7 
  91        91   981     510.4 
  92        92   982     520.0 
  93        93   980     496.6 
  94        94   980     522.8 
  95        95   980     517.3 
  96        96   982     524.4 
  97        97   981     528.0 
  98        98   980     529.3 
  99        99   980     521.4 
 100       100   980     515.3 
 101       101   981     516.1 
 102       102   980     524.5 
 103       103   980     526.2 
 104       104   980     475.5 
 105       105   982     522.7 
 106       106   980     537.4 
 107       107   980     501.0 
 108       108   980     459.9 
 109       109   981     499.5 
 110       110   980     522.4 
 111       111   980     505.4 
 112       112   980     464.3 
 113       113   980     498.6 
 114       114   981     491.0 
 115       115   980     498.0 
 116       116   980     523.5 
 117       117   980     461.6 
 118       118   980     486.7 
 119       119   980     517.3 
 120       120   979     490.3 
 121       121   980     482.7 
 122       122   980     486.7 
 123       123   981     517.5 
 124       124   979     522.0 
 125       125   980     494.9 
 126       126   980     474.5 
 127       127   981     519.2 
 128       128   980     519.4 
 129       129   979     487.9 
 130       130   979     466.8 
 131       131   980     512.2 
 132       132   980     516.0 
 133       133   979     506.3 
 134       134   979     512.1 
 135       135   979     461.0 
 136       136   980     517.7 
 137       137   979     504.6 
 138       138   979     512.1 
 139       139   979     491.3 
 140       140   980     485.4 
 141       141   980     491.5 
 142       142   978     498.6 
 143       143   980     486.4 
 144       144   979     488.9 
 145       145   980     512.6 
 146       146   978     515.3 
 147       147   979     488.6 
 148       148   979     478.0 
 149       149   979     515.2 
 150       150   979     515.2 
 151       210  1000     461.7 
 152       270   997     464.4 
 153       330  1000     518.0 
 154       390   996     437.8 
 155       450   996     492.3 
 156       510   996     508.7 
 157       570   994     441.3 
 158       630   998     443.6 
 159       810   983     399.1 
 160       990   980     459.2 
 161      1170   985     414.9 
 162      1350   986     402.6 
 163      1530   981     406.7 
 164      2070   980     354.4 
 165      2691   973     409.0 
 166      3405   978     363.7 
 167      4226   978     387.2 
 168      5170   976     441.3 
 169      6256   975     387.7 
 170      7505   974     385.7 
 171      8941   977     357.9 
 172     10592   975     283.8 
 173     12491   973     313.8 
 174     14675   979     360.6 
 175     17187   975     353.5 
 176     20076   974     351.1 
 177     23398   977     352.4 
 178     27218   979     363.6 
 179     31611   980     310.9 
 180     36663   980     384.4 
 181     42473   977     413.9 
 182     49155   978     338.4 
 183     56839   980     250.3 
 184     65676   977     312.9 
 185     75839   981     312.9 
   1         1   156     365.4 
   2         2   817     496.9 
   3         3   953     576.4 
   4         4   969     558.3 
   5         5   972     541.5 
   6         6   973     511.5 
   7         7   973     565.6 
   8         8   977     566.7 
   9         9   974     560.6 
  10        10   975     555.9 
  11        11   976     613.4 
  12        12   977     656.1 
  13        13   977     623.0 
  14        14   977     629.5 
  15        15   977     606.3 
  16        16   978     631.2 
  17        17   980     646.3 
  18        18   977     608.0 
  19        19   978     628.2 
  20        20   979     624.8 
  21        21   980     624.1 
  22        22   979     610.5 
  23        23   979     611.5 
  24        24   979     585.6 
  25        25   980     595.9 
  26        26   980     627.2 
  27        27   978     595.4 
  28        28   980     558.2 
  29        29   980     579.6 
  30        30   980     613.6 
  31        31   980     628.2 
  32        32   980     612.2 
  33        33   980     609.2 
  34        34   981     644.9 
  35        35   981     616.0 
  36        36   980     611.2 
  37        37   981     623.2 
  38        38   980     625.9 
  39        39   981     627.6 
  40        40   980     630.6 
  41        41   981     595.0 
  42        42   980     638.8 
  43        43   982     663.6 
  44        44   981     669.7 
  45        45   980     646.9 
  46        46   981     624.5 
  47        47   982     668.4 
  48        48   982     669.0 
  49        49   981     621.8 
  50        50   981     644.6 
  51        51   980     673.8 
  52        52   983     664.0 
  53        53   981     652.1 
  54        54   981     644.6 
  55        55   981     634.7 
  56        56   982     656.8 
  57        57   982     666.0 
  58        58   981     650.4 
  59        59   981     628.6 
  60        60   980     657.8 
  61        61   983     665.6 
  62        62   981     649.0 
  63        63   981     636.4 
  64        64   981     649.3 
  65        65   982     656.8 
  66        66   982     656.8 
  67        67   981     639.8 
  68        68   981     654.4 
  69        69   981     654.1 
  70        70   983     642.3 
  71        71   980     654.8 
  72        72   981     625.6 
  73        73   981     632.0 
  74        74   982     654.1 
  75        75   981     628.3 
  76        76   980     622.4 
  77        77   980     617.3 
  78        78   982     656.5 
  79        79   982     657.2 
  80        80   980     630.3 
  81        81   981     610.6 
  82        82   980     623.5 
  83        83   982     651.4 
  84        84   980     628.2 
  85        85   980     616.7 
  86        86   980     611.9 
  87        87   982     626.6 
  88        88   981     632.3 
  89        89   980     615.3 
  90        90   981     581.0 
  91        91   981     648.3 
  92        92   982     643.9 
  93        93   980     607.8 
  94        94   980     614.6 
  95        95   980     581.6 
  96        96   982     639.5 
  97        97   981     622.8 
  98        98   980     610.2 
  99        99   980     595.6 
 100       100   980     644.2 
 101       101   981     622.8 
 102       102   980     595.9 
 103       103   980     606.1 
 104       104   980     620.1 
 105       105   982     625.6 
 106       106   980     620.4 
 107       107   980     575.2 
 108       108   980     587.8 
 109       109   981     603.1 
 110       110   980     621.4 
 111       111   980     598.3 
 112       112   980     615.6 
 113       113   980     611.2 
 114       114   981     635.4 
 115       115   980     653.1 
 116       116   980     573.5 
 117       117   980     573.8 
 118       118   980     624.5 
 119       119   980     595.2 
 120       120   979     595.5 
 121       121   980     609.2 
 122       122   980     596.9 
 123       123   981     593.3 
 124       124   979     576.8 
 125       125   980     580.6 
 126       126   980     610.9 
 127       127   981     619.4 
 128       128   980     608.8 
 129       129   979     631.6 
 130       130   979     581.2 
 131       131   980     609.9 
 132       132   980     608.8 
 133       133   979     615.3 
 134       134   979     584.3 
 135       135   979     622.1 
 136       136   980     647.6 
 137       137   979     643.9 
 138       138   979     602.3 
 139       139   979     625.1 
 140       140   980     639.5 
 141       141   980     640.1 
 142       142   978     602.6 
 143       143   980     640.5 
 144       144   979     630.6 
 145       145   980     643.9 
 146       146   978     646.6 
 147       147   979     606.1 
 148       148   979     622.7 
 149       149   979     600.6 
 150       150   979     600.6 
 151       210  1000     664.3 
 152       270   997     598.5 
 153       330  1000     613.0 
 154       390   996     645.2 
 155       450   996     571.6 
 156       510   996     708.5 
 157       570   994     548.3 
 158       630   998     609.2 
 159       810   983     601.2 
 160       990   980     528.9 
 161      1170   985     635.5 
 162      1350   986     581.8 
 163      1530   981     546.0 
 164      2070   980     563.6 
 165      2691   973     643.7 
 166      3405   978     504.8 
 167      4226   978     619.6 
 168      5170   976     501.4 
 169      6256   975     615.7 
 170      7505   974     514.7 
 171      8941   977     525.8 
 172     10592   975     449.2 
 173     12491   973     454.3 
 174     14675   979     449.4 
 175     17187   975     472.1 
 176     20076   974     433.6 
 177     23398   977     445.6 
 178     27218   979     508.3 
 179     31611   980     444.6 
 180     36663   980     390.1 
 181     42473   977     494.4 
 182     49155   978     363.0 
 183     56839   980     506.1 
 184     65676   977     416.9 
 185     75839   981     416.9 
