PC/104 FIRe Fluorometer 2.0.0
 4/ 8/2025     39866
LED Color:           blue
Gain:               1700
Sample Delay (msec):    10
Number Samples:   3
STF (usec):      150
STRP (#samples):       35
STRI (usec):       60
MTF (ms):        0
MTF (#samples):     0
MTRP (#samples):        0
MTRI (usec):      100
PQLen:     4
Ambient Light Source Power: Off
PAR (uMol/m^2/s):375.81
Comment:
Depth(m):  -2.0
Temperature(C):  75.5
Battery(V):  14.07

         Time    EX   Fl-Yield 
DATA--------------------------
   0         0     0       0.0 
   1         1   156      29.9 
   2         2   817     222.0 
   3         3   953     235.7 
   4         4   969     265.9 
   5         5   972     255.1 
   6         6   973     227.8 
   7         7   973     265.2 
   8         8   977     296.5 
   9         9   974     297.1 
  10        10   975     272.1 
  11        11   976     258.5 
  12        12   977     288.6 
  13        13   977     318.0 
  14        14   977     301.3 
  15        15   977     276.4 
  16        16   978     305.7 
  17        17   980     304.8 
  18        18   977     324.5 
  19        19   978     306.4 
  20        20   979     321.8 
  21        21   980     333.3 
  22        22   979     340.5 
  23        23   979     306.4 
  24        24   979     339.5 
  25        25   980     326.9 
  26        26   980     350.0 
  27        27   978     321.7 
  28        28   980     320.1 
  29        29   980     340.8 
  30        30   980     369.4 
  31        31   980     351.4 
  32        32   980     347.6 
  33        33   980     340.5 
  34        34   981     352.7 
  35        35   981     381.9 
  36        36   980     355.4 
  37        37   981     368.3 
  38        38   980     371.4 
  39        39   981     395.9 
  40        40   980     357.8 
  41        41   981     362.6 
  42        42   980     380.3 
  43        43   982     383.2 
  44        44   981     371.7 
  45        45   980     370.4 
  46        46   981     354.1 
  47        47   982     393.8 
  48        48   982     406.7 
  49        49   981     370.7 
  50        50   981     396.9 
  51        51   980     382.7 
  52        52   983     400.5 
  53        53   981     370.0 
  54        54   981     381.2 
  55        55   981     397.2 
  56        56   982     414.5 
  57        57   982     386.3 
  58        58   981     368.3 
  59        59   981     362.2 
  60        60   980     384.4 
  61        61   983     421.5 
  62        62   981     368.0 
  63        63   981     384.3 
  64        64   981     376.8 
  65        65   982     378.1 
  66        66   982     381.2 
  67        67   981     367.3 
  68        68   981     367.7 
  69        69   981     406.7 
  70        70   983     379.5 
  71        71   980     370.1 
  72        72   981     392.8 
  73        73   981     386.3 
  74        74   982     425.0 
  75        75   981     375.5 
  76        76   980     379.6 
  77        77   980     390.5 
  78        78   982     415.8 
  79        79   982     364.6 
  80        80   980     368.4 
  81        81   981     387.0 
  82        82   980     408.2 
  83        83   982     397.5 
  84        84   980     380.3 
  85        85   980     387.8 
  86        86   980     411.2 
  87        87   982     426.7 
  88        88   981     411.8 
  89        89   980     403.4 
  90        90   981     433.2 
  91        91   981     441.4 
  92        92   982     426.0 
  93        93   980     384.0 
  94        94   980     417.3 
  95        95   980     428.9 
  96        96   982     436.9 
  97        97   981     411.8 
  98        98   980     423.1 
  99        99   980     407.1 
 100       100   980     444.2 
 101       101   981     423.0 
 102       102   980     420.7 
 103       103   980     420.1 
 104       104   980     422.1 
 105       105   982     436.2 
 106       106   980     424.5 
 107       107   980     402.7 
 108       108   980     431.0 
 109       109   981     439.3 
 110       110   980     420.1 
 111       111   980     422.8 
 112       112   980     419.4 
 113       113   980     436.4 
 114       114   981     435.9 
 115       115   980     417.0 
 116       116   980     391.5 
 117       117   980     459.9 
 118       118   980     438.4 
 119       119   980     413.9 
 120       120   979     409.6 
 121       121   980     404.4 
 122       122   980     433.7 
 123       123   981     411.8 
 124       124   979     426.6 
 125       125   980     436.7 
 126       126   980     439.8 
 127       127   981     417.3 
 128       128   980     394.6 
 129       129   979     429.0 
 130       130   979     420.2 
 131       131   980     432.3 
 132       132   980     384.4 
 133       133   979     405.9 
 134       134   979     421.2 
 135       135   979     434.5 
 136       136   980     409.2 
 137       137   979     407.6 
 138       138   979     392.6 
 139       139   979     425.6 
 140       140   980     407.5 
 141       141   980     416.3 
 142       142   978     409.3 
 143       143   980     428.9 
 144       144   979     414.7 
 145       145   980     386.1 
 146       146   978     388.5 
 147       147   979     414.0 
 148       148   979     419.8 
 149       149   979     411.3 
 150       150   979     411.3 
 151       210  1000     436.0 
 152       270   997     330.3 
 153       330  1000     372.0 
 154       390   996     386.9 
 155       450   996     407.6 
 156       510   996     366.1 
 157       570   994     346.4 
 158       630   998     364.4 
 159       810   983     345.5 
 160       990   980     388.4 
 161      1170   985     290.7 
 162      1350   986     347.9 
 163      1530   981     346.6 
 164      2070   980     319.0 
 165      2691   973     269.3 
 166      3405   978     333.3 
 167      4226   978     205.9 
 168      5170   976     258.5 
 169      6256   975     313.5 
 170      7505   974     291.2 
 171      8941   977     361.3 
 172     10592   975     232.5 
 173     12491   973     252.8 
 174     14675   979     236.6 
 175     17187   975     256.8 
 176     20076   974     273.4 
 177     23398   977     271.2 
 178     27218   979     255.4 
 179     31611   980     227.2 
 180     36663   980     261.2 
 181     42473   977     230.0 
 182     49155   978     227.3 
 183     56839   980     238.8 
 184     65676   977     237.1 
 185     75839   981     237.1 
   1         1   156     316.2 
   2         2   817     499.0 
   3         3   953     466.6 
   4         4   969     496.0 
   5         5   972     464.0 
   6         6   973     480.3 
   7         7   973     492.6 
   8         8   977     495.7 
   9         9   974     479.8 
  10        10   975     494.0 
  11        11   976     509.6 
  12        12   977     516.9 
  13        13   977     499.5 
  14        14   977     525.4 
  15        15   977     522.0 
  16        16   978     523.5 
  17        17   980     530.3 
  18        18   977     526.4 
  19        19   978     520.4 
  20        20   979     530.8 
  21        21   980     506.8 
  22        22   979     502.6 
  23        23   979     497.4 
  24        24   979     510.7 
  25        25   980     486.7 
  26        26   980     502.7 
  27        27   978     488.1 
  28        28   980     518.4 
  29        29   980     492.9 
  30        30   980     501.7 
  31        31   980     506.1 
  32        32   980     500.3 
  33        33   980     510.2 
  34        34   981     529.7 
  35        35   981     528.7 
  36        36   980     501.7 
  37        37   981     511.0 
  38        38   980     482.7 
  39        39   981     512.7 
  40        40   980     512.9 
  41        41   981     524.0 
  42        42   980     534.4 
  43        43   982     546.5 
  44        44   981     521.6 
  45        45   980     525.5 
  46        46   981     527.4 
  47        47   982     525.5 
  48        48   982     526.1 
  49        49   981     544.0 
  50        50   981     515.8 
  51        51   980     531.3 
  52        52   983     511.4 
  53        53   981     527.7 
  54        54   981     522.6 
  55        55   981     508.0 
  56        56   982     513.9 
  57        57   982     529.5 
  58        58   981     531.4 
  59        59   981     523.6 
  60        60   980     519.4 
  61        61   983     527.3 
  62        62   981     510.0 
  63        63   981     526.3 
  64        64   981     552.8 
  65        65   982     544.1 
  66        66   982     522.1 
  67        67   981     542.3 
  68        68   981     528.0 
  69        69   981     542.6 
  70        70   983     516.8 
  71        71   980     537.4 
  72        72   981     535.8 
  73        73   981     526.3 
  74        74   982     516.6 
  75        75   981     537.5 
  76        76   980     540.5 
  77        77   980     516.7 
  78        78   982     528.2 
  79        79   982     499.0 
  80        80   980     511.2 
  81        81   981     540.3 
  82        82   980     527.9 
  83        83   982     538.4 
  84        84   980     526.2 
  85        85   980     528.9 
  86        86   980     514.3 
  87        87   982     547.2 
  88        88   981     533.1 
  89        89   980     514.3 
  90        90   981     521.6 
  91        91   981     530.4 
  92        92   982     541.8 
  93        93   980     544.2 
  94        94   980     516.3 
  95        95   980     518.4 
  96        96   982     532.6 
  97        97   981     503.2 
  98        98   980     559.2 
  99        99   980     516.7 
 100       100   980     541.2 
 101       101   981     538.2 
 102       102   980     525.5 
 103       103   980     529.9 
 104       104   980     513.9 
 105       105   982     520.4 
 106       106   980     509.5 
 107       107   980     521.8 
 108       108   980     518.7 
 109       109   981     527.4 
 110       110   980     511.2 
 111       111   980     535.0 
 112       112   980     502.4 
 113       113   980     523.5 
 114       114   981     529.1 
 115       115   980     550.0 
 116       116   980     526.5 
 117       117   980     547.3 
 118       118   980     542.5 
 119       119   980     531.6 
 120       120   979     517.2 
 121       121   980     549.7 
 122       122   980     542.9 
 123       123   981     545.0 
 124       124   979     535.6 
 125       125   980     538.1 
 126       126   980     532.0 
 127       127   981     532.8 
 128       128   980     528.9 
 129       129   979     558.7 
 130       130   979     542.0 
 131       131   980     539.8 
 132       132   980     521.8 
 133       133   979     551.9 
 134       134   979     541.0 
 135       135   979     552.3 
 136       136   980     513.9 
 137       137   979     539.0 
 138       138   979     531.2 
 139       139   979     530.8 
 140       140   980     555.8 
 141       141   980     534.4 
 142       142   978     526.9 
 143       143   980     522.8 
 144       144   979     547.2 
 145       145   980     522.4 
 146       146   978     513.6 
 147       147   979     517.5 
 148       148   979     523.7 
 149       149   979     545.5 
 150       150   979     545.5 
 151       210  1000     550.7 
 152       270   997     493.8 
 153       330  1000     537.0 
 154       390   996     544.8 
 155       450   996     568.6 
 156       510   996     545.2 
 157       570   994     509.4 
 158       630   998     608.6 
 159       810   983     482.5 
 160       990   980     496.6 
 161      1170   985     556.3 
 162      1350   986     529.1 
 163      1530   981     512.1 
 164      2070   980     489.8 
 165      2691   973     526.9 
 166      3405   978     513.6 
 167      4226   978     518.7 
 168      5170   976     456.6 
 169      6256   975     445.1 
 170      7505   974     439.4 
 171      8941   977     460.3 
 172     10592   975     419.5 
 173     12491   973     382.3 
 174     14675   979     408.6 
 175     17187   975     405.8 
 176     20076   974     405.9 
 177     23398   977     367.5 
 178     27218   979     368.1 
 179     31611   980     354.8 
 180     36663   980     317.3 
 181     42473   977     295.1 
 182     49155   978     342.2 
 183     56839   980     285.7 
 184     65676   977     347.0 
 185     75839   981     347.0 
