PC/104 FIRe Fluorometer 2.0.0
 4/ 8/2025     27956
LED Color:           blue
Gain:               2000
Sample Delay (msec):    10
Number Samples:   3
STF (usec):      150
STRP (#samples):       35
STRI (usec):       60
MTF (ms):        0
MTF (#samples):     0
MTRP (#samples):        0
MTRI (usec):      100
PQLen:     4
Ambient Light Source Power: Off
PAR (uMol/m^2/s):630.00
Comment:
Depth(m):   4.1
Temperature(C):  46.2
Battery(V):  16.22

         Time    EX   Fl-Yield 
DATA--------------------------
   0         0     0       0.0 
   1         1   156     111.1 
   2         2   817     182.8 
   3         3   953     188.2 
   4         4   969     231.2 
   5         5   972     209.2 
   6         6   973     222.3 
   7         7   973     163.4 
   8         8   977     158.6 
   9         9   974     209.1 
  10        10   975     213.7 
  11        11   976     243.2 
  12        12   977     142.3 
  13        13   977     220.4 
  14        14   977     236.4 
  15        15   977     250.8 
  16        16   978     185.1 
  17        17   980     239.8 
  18        18   977     221.1 
  19        19   978     231.1 
  20        20   979     246.5 
  21        21   980     189.5 
  22        22   979     244.1 
  23        23   979     273.4 
  24        24   979     259.1 
  25        25   980     224.8 
  26        26   980     232.7 
  27        27   978     286.3 
  28        28   980     305.1 
  29        29   980     275.2 
  30        30   980     237.4 
  31        31   980     274.5 
  32        32   980     305.1 
  33        33   980     240.8 
  34        34   981     294.3 
  35        35   981     281.0 
  36        36   980     316.0 
  37        37   981     262.3 
  38        38   980     241.2 
  39        39   981     314.3 
  40        40   980     342.2 
  41        41   981     326.5 
  42        42   980     273.5 
  43        43   982     318.1 
  44        44   981     350.0 
  45        45   980     321.4 
  46        46   981     326.9 
  47        47   982     286.5 
  48        48   982     308.9 
  49        49   981     306.8 
  50        50   981     306.2 
  51        51   980     242.5 
  52        52   983     358.1 
  53        53   981     275.6 
  54        54   981     305.5 
  55        55   981     329.3 
  56        56   982     275.3 
  57        57   982     303.8 
  58        58   981     270.1 
  59        59   981     337.8 
  60        60   980     299.0 
  61        61   983     231.3 
  62        62   981     333.3 
  63        63   981     326.2 
  64        64   981     326.2 
  65        65   982     296.3 
  66        66   982     349.6 
  67        67   981     341.1 
  68        68   981     304.5 
  69        69   981     359.5 
  70        70   983     349.3 
  71        71   980     360.9 
  72        72   981     338.8 
  73        73   981     321.1 
  74        74   982     327.9 
  75        75   981     349.6 
  76        76   980     334.0 
  77        77   980     261.6 
  78        78   982     317.7 
  79        79   982     308.6 
  80        80   980     377.2 
  81        81   981     296.0 
  82        82   980     356.1 
  83        83   982     316.4 
  84        84   980     314.6 
  85        85   980     342.9 
  86        86   980     330.3 
  87        87   982     321.5 
  88        88   981     288.8 
  89        89   980     332.3 
  90        90   981     314.3 
  91        91   981     287.1 
  92        92   982     309.6 
  93        93   980     396.9 
  94        94   980     298.6 
  95        95   980     301.7 
  96        96   982     280.4 
  97        97   981     338.8 
  98        98   980     347.3 
  99        99   980     304.4 
 100       100   980     317.0 
 101       101   981     282.4 
 102       102   980     402.0 
 103       103   980     383.7 
 104       104   980     294.6 
 105       105   982     329.6 
 106       106   980     340.1 
 107       107   980     322.4 
 108       108   980     326.2 
 109       109   981     329.3 
 110       110   980     319.7 
 111       111   980     332.0 
 112       112   980     303.4 
 113       113   980     322.1 
 114       114   981     305.5 
 115       115   980     381.3 
 116       116   980     350.0 
 117       117   980     349.0 
 118       118   980     263.9 
 119       119   980     368.7 
 120       120   979     357.5 
 121       121   980     318.7 
 122       122   980     369.4 
 123       123   981     325.5 
 124       124   979     327.5 
 125       125   980     317.3 
 126       126   980     380.6 
 127       127   981     342.8 
 128       128   980     352.4 
 129       129   979     309.8 
 130       130   979     291.1 
 131       131   980     326.9 
 132       132   980     330.3 
 133       133   979     345.3 
 134       134   979     254.3 
 135       135   979     244.5 
 136       136   980     300.7 
 137       137   979     312.6 
 138       138   979     308.8 
 139       139   979     318.0 
 140       140   980     263.6 
 141       141   980     313.6 
 142       142   978     232.4 
 143       143   980     333.7 
 144       144   979     295.2 
 145       145   980     309.5 
 146       146   978     327.9 
 147       147   979     270.7 
 148       148   979     295.2 
 149       149   979     339.5 
 150       150   979     339.5 
 151       210  1000     367.0 
 152       270   997     345.0 
 153       330  1000     292.7 
 154       390   996     220.9 
 155       450   996     397.9 
 156       510   996     321.6 
 157       570   994     326.6 
 158       630   998     341.0 
 159       810   983     300.1 
 160       990   980     221.4 
 161      1170   985     229.1 
 162      1350   986     332.3 
 163      1530   981     357.1 
 164      2070   980     291.8 
 165      2691   973     234.7 
 166      3405   978     210.3 
 167      4226   978     217.5 
 168      5170   976     174.5 
 169      6256   975     136.1 
 170      7505   974     268.3 
 171      8941   977     214.3 
 172     10592   975     357.3 
 173     12491   973     227.5 
 174     14675   979     159.0 
 175     17187   975     285.8 
 176     20076   974     270.0 
 177     23398   977     285.9 
 178     27218   979     277.2 
 179     31611   980     174.1 
 180     36663   980     213.3 
 181     42473   977     290.3 
 182     49155   978     342.5 
 183     56839   980     154.1 
 184     65676   977     245.6 
 185     75839   981     245.6 
   1         1   156     553.4 
   2         2   817     414.5 
   3         3   953     456.8 
   4         4   969     399.7 
   5         5   972     420.1 
   6         6   973     408.7 
   7         7   973     407.0 
   8         8   977     421.4 
   9         9   974     451.7 
  10        10   975     520.0 
  11        11   976     540.6 
  12        12   977     553.1 
  13        13   977     554.4 
  14        14   977     549.6 
  15        15   977     568.7 
  16        16   978     569.9 
  17        17   980     541.8 
  18        18   977     523.7 
  19        19   978     516.7 
  20        20   979     515.2 
  21        21   980     483.7 
  22        22   979     456.2 
  23        23   979     493.4 
  24        24   979     497.4 
  25        25   980     409.9 
  26        26   980     479.6 
  27        27   978     430.1 
  28        28   980     449.0 
  29        29   980     513.9 
  30        30   980     380.6 
  31        31   980     425.5 
  32        32   980     390.8 
  33        33   980     455.8 
  34        34   981     431.5 
  35        35   981     404.0 
  36        36   980     469.7 
  37        37   981     494.4 
  38        38   980     443.2 
  39        39   981     459.7 
  40        40   980     391.5 
  41        41   981     454.0 
  42        42   980     451.0 
  43        43   982     376.1 
  44        44   981     452.9 
  45        45   980     453.1 
  46        46   981     488.3 
  47        47   982     477.3 
  48        48   982     470.1 
  49        49   981     470.9 
  50        50   981     464.2 
  51        51   980     435.7 
  52        52   983     437.1 
  53        53   981     455.7 
  54        54   981     443.4 
  55        55   981     492.0 
  56        56   982     476.2 
  57        57   982     452.8 
  58        58   981     489.6 
  59        59   981     523.6 
  60        60   980     469.0 
  61        61   983     482.2 
  62        62   981     471.6 
  63        63   981     470.6 
  64        64   981     448.9 
  65        65   982     459.6 
  66        66   982     414.5 
  67        67   981     466.2 
  68        68   981     463.8 
  69        69   981     431.2 
  70        70   983     488.0 
  71        71   980     416.3 
  72        72   981     466.2 
  73        73   981     465.2 
  74        74   982     455.9 
  75        75   981     453.6 
  76        76   980     465.0 
  77        77   980     456.8 
  78        78   982     422.9 
  79        79   982     390.0 
  80        80   980     456.5 
  81        81   981     455.3 
  82        82   980     459.9 
  83        83   982     482.0 
  84        84   980     436.7 
  85        85   980     458.5 
  86        86   980     413.9 
  87        87   982     450.8 
  88        88   981     361.2 
  89        89   980     395.6 
  90        90   981     453.6 
  91        91   981     436.6 
  92        92   982     405.6 
  93        93   980     395.2 
  94        94   980     475.5 
  95        95   980     437.4 
  96        96   982     441.6 
  97        97   981     444.8 
  98        98   980     464.3 
  99        99   980     461.6 
 100       100   980     410.2 
 101       101   981     449.2 
 102       102   980     396.3 
 103       103   980     475.5 
 104       104   980     424.1 
 105       105   982     451.5 
 106       106   980     449.0 
 107       107   980     384.4 
 108       108   980     477.6 
 109       109   981     414.5 
 110       110   980     452.7 
 111       111   980     417.0 
 112       112   980     505.1 
 113       113   980     427.6 
 114       114   981     412.5 
 115       115   980     491.2 
 116       116   980     494.9 
 117       117   980     463.9 
 118       118   980     453.4 
 119       119   980     398.3 
 120       120   979     476.7 
 121       121   980     481.3 
 122       122   980     530.3 
 123       123   981     410.8 
 124       124   979     516.9 
 125       125   980     498.6 
 126       126   980     480.3 
 127       127   981     513.4 
 128       128   980     449.3 
 129       129   979     531.5 
 130       130   979     494.0 
 131       131   980     477.2 
 132       132   980     512.9 
 133       133   979     523.7 
 134       134   979     474.6 
 135       135   979     506.6 
 136       136   980     459.5 
 137       137   979     493.4 
 138       138   979     556.3 
 139       139   979     463.4 
 140       140   980     436.4 
 141       141   980     411.9 
 142       142   978     488.4 
 143       143   980     489.1 
 144       144   979     472.9 
 145       145   980     463.9 
 146       146   978     484.3 
 147       147   979     487.6 
 148       148   979     482.5 
 149       149   979     514.5 
 150       150   979     514.5 
 151       210  1000     313.3 
 152       270   997     386.8 
 153       330  1000     486.3 
 154       390   996     417.7 
 155       450   996     415.7 
 156       510   996     448.5 
 157       570   994     485.2 
 158       630   998     465.9 
 159       810   983     380.5 
 160       990   980     504.1 
 161      1170   985     544.2 
 162      1350   986     532.8 
 163      1530   981     528.7 
 164      2070   980     498.0 
 165      2691   973     359.0 
 166      3405   978     355.5 
 167      4226   978     500.3 
 168      5170   976     296.1 
 169      6256   975     324.1 
 170      7505   974     355.6 
 171      8941   977     375.6 
 172     10592   975     445.8 
 173     12491   973     200.4 
 174     14675   979     318.0 
 175     17187   975     252.0 
 176     20076   974     348.4 
 177     23398   977     458.2 
 178     27218   979     529.5 
 179     31611   980     320.1 
 180     36663   980     376.5 
 181     42473   977     387.6 
 182     49155   978     139.7 
 183     56839   980     298.3 
 184     65676   977     268.9 
 185     75839   981     268.9 
