PC/104 FIRe Fluorometer 2.0.0
 4/ 8/2025     29425
LED Color:           blue
Gain:               2000
Sample Delay (msec):    10
Number Samples:   3
STF (usec):      150
STRP (#samples):       35
STRI (usec):       60
MTF (ms):        0
MTF (#samples):     0
MTRP (#samples):        0
MTRI (usec):      100
PQLen:     4
Ambient Light Source Power: Off
PAR (uMol/m^2/s):629.19
Comment:
Depth(m):   2.9
Temperature(C):  52.0
Battery(V):  16.00

         Time    EX   Fl-Yield 
DATA--------------------------
   0         0     0       0.0 
   1         1   156     203.0 
   2         2   817     166.9 
   3         3   953     201.8 
   4         4   969     166.2 
   5         5   972     203.7 
   6         6   973     160.0 
   7         7   973     166.8 
   8         8   977     166.5 
   9         9   974     187.5 
  10        10   975     171.6 
  11        11   976     135.6 
  12        12   977     202.7 
  13        13   977     194.1 
  14        14   977     182.9 
  15        15   977     166.5 
  16        16   978     183.4 
  17        17   980     198.0 
  18        18   977     203.7 
  19        19   978     218.5 
  20        20   979     227.1 
  21        21   980     152.7 
  22        22   979     207.0 
  23        23   979     219.3 
  24        24   979     202.2 
  25        25   980     233.3 
  26        26   980     194.2 
  27        27   978     195.3 
  28        28   980     198.0 
  29        29   980     158.5 
  30        30   980     167.0 
  31        31   980     231.6 
  32        32   980     213.9 
  33        33   980     186.7 
  34        34   981     149.2 
  35        35   981     167.9 
  36        36   980     206.5 
  37        37   981     248.4 
  38        38   980     152.0 
  39        39   981     191.6 
  40        40   980     205.1 
  41        41   981     219.5 
  42        42   980     191.5 
  43        43   982     234.9 
  44        44   981     186.5 
  45        45   980     210.2 
  46        46   981     167.2 
  47        47   982     181.6 
  48        48   982     168.7 
  49        49   981     151.9 
  50        50   981     184.2 
  51        51   980     183.3 
  52        52   983     127.8 
  53        53   981     192.3 
  54        54   981     203.5 
  55        55   981     198.1 
  56        56   982     152.7 
  57        57   982     165.3 
  58        58   981     149.5 
  59        59   981     227.0 
  60        60   980     183.3 
  61        61   983     188.2 
  62        62   981     186.2 
  63        63   981     193.3 
  64        64   981     201.2 
  65        65   982     182.3 
  66        66   982     182.6 
  67        67   981     243.6 
  68        68   981     194.0 
  69        69   981     136.9 
  70        70   983     178.7 
  71        71   980     204.4 
  72        72   981     221.5 
  73        73   981     186.2 
  74        74   982     208.4 
  75        75   981     193.0 
  76        76   980     205.1 
  77        77   980     158.8 
  78        78   982     215.5 
  79        79   982     236.6 
  80        80   980     193.9 
  81        81   981     234.5 
  82        82   980     200.3 
  83        83   982     230.5 
  84        84   980     210.2 
  85        85   980     230.3 
  86        86   980     224.5 
  87        87   982     199.9 
  88        88   981     244.3 
  89        89   980     252.7 
  90        90   981     233.1 
  91        91   981     172.3 
  92        92   982     215.9 
  93        93   980     150.0 
  94        94   980     217.3 
  95        95   980     261.2 
  96        96   982     259.0 
  97        97   981     214.4 
  98        98   980     262.9 
  99        99   980     214.6 
 100       100   980     219.4 
 101       101   981     267.1 
 102       102   980     225.9 
 103       103   980     230.3 
 104       104   980     171.4 
 105       105   982     239.0 
 106       106   980     243.9 
 107       107   980     276.5 
 108       108   980     275.5 
 109       109   981     197.1 
 110       110   980     224.1 
 111       111   980     283.0 
 112       112   980     252.7 
 113       113   980     226.2 
 114       114   981     242.6 
 115       115   980     227.9 
 116       116   980     221.1 
 117       117   980     233.0 
 118       118   980     264.3 
 119       119   980     240.1 
 120       120   979     229.5 
 121       121   980     278.2 
 122       122   980     238.8 
 123       123   981     252.5 
 124       124   979     242.4 
 125       125   980     243.9 
 126       126   980     226.9 
 127       127   981     187.2 
 128       128   980     235.4 
 129       129   979     230.5 
 130       130   979     278.9 
 131       131   980     223.8 
 132       132   980     245.6 
 133       133   979     182.8 
 134       134   979     215.5 
 135       135   979     227.4 
 136       136   980     246.6 
 137       137   979     202.6 
 138       138   979     249.2 
 139       139   979     263.9 
 140       140   980     190.5 
 141       141   980     233.3 
 142       142   978     298.2 
 143       143   980     239.8 
 144       144   979     237.0 
 145       145   980     226.9 
 146       146   978     259.0 
 147       147   979     277.5 
 148       148   979     294.5 
 149       149   979     251.3 
 150       150   979     251.3 
 151       210  1000     347.7 
 152       270   997     344.4 
 153       330  1000     197.3 
 154       390   996     294.8 
 155       450   996     305.9 
 156       510   996     219.5 
 157       570   994     322.6 
 158       630   998     261.2 
 159       810   983     272.6 
 160       990   980     247.3 
 161      1170   985     206.4 
 162      1350   986     269.8 
 163      1530   981     270.5 
 164      2070   980     229.3 
 165      2691   973     215.5 
 166      3405   978     264.1 
 167      4226   978     121.0 
 168      5170   976     161.5 
 169      6256   975     372.0 
 170      7505   974     269.3 
 171      8941   977     224.8 
 172     10592   975     225.6 
 173     12491   973     257.3 
 174     14675   979     126.0 
 175     17187   975     289.2 
 176     20076   974     219.4 
 177     23398   977     194.5 
 178     27218   979     309.5 
 179     31611   980     311.6 
 180     36663   980     161.2 
 181     42473   977     278.4 
 182     49155   978      93.0 
 183     56839   980      52.0 
 184     65676   977     189.0 
 185     75839   981     189.0 
   1         1   156     117.5 
   2         2   817     239.9 
   3         3   953     291.0 
   4         4   969     308.6 
   5         5   972     326.8 
   6         6   973     242.5 
   7         7   973     229.5 
   8         8   977     301.3 
   9         9   974     354.9 
  10        10   975     372.3 
  11        11   976     301.9 
  12        12   977     384.5 
  13        13   977     424.8 
  14        14   977     438.8 
  15        15   977     385.5 
  16        16   978     401.8 
  17        17   980     439.1 
  18        18   977     391.7 
  19        19   978     376.3 
  20        20   979     361.3 
  21        21   980     341.5 
  22        22   979     402.5 
  23        23   979     357.2 
  24        24   979     319.7 
  25        25   980     375.2 
  26        26   980     352.0 
  27        27   978     375.6 
  28        28   980     355.4 
  29        29   980     359.5 
  30        30   980     360.5 
  31        31   980     460.5 
  32        32   980     359.5 
  33        33   980     292.5 
  34        34   981     359.8 
  35        35   981     370.7 
  36        36   980     356.8 
  37        37   981     350.7 
  38        38   980     334.0 
  39        39   981     371.7 
  40        40   980     413.6 
  41        41   981     378.2 
  42        42   980     318.0 
  43        43   982     350.6 
  44        44   981     388.4 
  45        45   980     432.0 
  46        46   981     348.3 
  47        47   982     354.4 
  48        48   982     369.3 
  49        49   981     374.4 
  50        50   981     362.2 
  51        51   980     325.2 
  52        52   983     338.1 
  53        53   981     355.1 
  54        54   981     361.2 
  55        55   981     323.5 
  56        56   982     330.3 
  57        57   982     331.6 
  58        58   981     396.5 
  59        59   981     356.4 
  60        60   980     276.2 
  61        61   983     307.2 
  62        62   981     373.1 
  63        63   981     353.7 
  64        64   981     305.1 
  65        65   982     254.2 
  66        66   982     330.3 
  67        67   981     342.2 
  68        68   981     343.2 
  69        69   981     341.1 
  70        70   983     329.6 
  71        71   980     379.6 
  72        72   981     377.8 
  73        73   981     311.6 
  74        74   982     301.4 
  75        75   981     305.8 
  76        76   980     327.9 
  77        77   980     285.7 
  78        78   982     328.6 
  79        79   982     333.3 
  80        80   980     357.5 
  81        81   981     349.0 
  82        82   980     291.2 
  83        83   982     298.0 
  84        84   980     376.5 
  85        85   980     351.4 
  86        86   980     344.9 
  87        87   982     330.6 
  88        88   981     333.3 
  89        89   980     384.7 
  90        90   981     345.6 
  91        91   981     297.0 
  92        92   982     319.1 
  93        93   980     351.0 
  94        94   980     374.8 
  95        95   980     328.6 
  96        96   982     328.2 
  97        97   981     320.4 
  98        98   980     379.6 
  99        99   980     345.9 
 100       100   980     304.4 
 101       101   981     313.3 
 102       102   980     347.6 
 103       103   980     351.0 
 104       104   980     343.9 
 105       105   982     333.7 
 106       106   980     329.3 
 107       107   980     354.1 
 108       108   980     311.2 
 109       109   981     332.0 
 110       110   980     322.8 
 111       111   980     346.6 
 112       112   980     389.8 
 113       113   980     328.9 
 114       114   981     293.2 
 115       115   980     386.7 
 116       116   980     401.7 
 117       117   980     260.2 
 118       118   980     284.7 
 119       119   980     277.6 
 120       120   979     366.7 
 121       121   980     403.4 
 122       122   980     318.0 
 123       123   981     323.1 
 124       124   979     367.7 
 125       125   980     373.1 
 126       126   980     339.1 
 127       127   981     279.0 
 128       128   980     342.9 
 129       129   979     360.9 
 130       130   979     401.4 
 131       131   980     281.6 
 132       132   980     275.5 
 133       133   979     309.8 
 134       134   979     332.0 
 135       135   979     337.4 
 136       136   980     334.0 
 137       137   979     275.5 
 138       138   979     337.8 
 139       139   979     335.4 
 140       140   980     280.3 
 141       141   980     338.1 
 142       142   978     350.4 
 143       143   980     384.4 
 144       144   979     332.3 
 145       145   980     317.7 
 146       146   978     342.9 
 147       147   979     383.0 
 148       148   979     336.4 
 149       149   979     405.5 
 150       150   979     405.5 
 151       210  1000     293.0 
 152       270   997     498.8 
 153       330  1000     212.0 
 154       390   996     490.0 
 155       450   996     267.7 
 156       510   996     423.7 
 157       570   994     266.3 
 158       630   998     291.6 
 159       810   983     293.7 
 160       990   980     133.7 
 161      1170   985     416.6 
 162      1350   986     220.4 
 163      1530   981     337.4 
 164      2070   980     373.8 
 165      2691   973     360.4 
 166      3405   978     253.2 
 167      4226   978     250.5 
 168      5170   976     218.9 
 169      6256   975     538.1 
 170      7505   974     350.1 
 171      8941   977     207.8 
 172     10592   975     346.7 
 173     12491   973     248.7 
 174     14675   979     144.0 
 175     17187   975     387.7 
 176     20076   974     357.6 
 177     23398   977     372.9 
 178     27218   979     267.3 
 179     31611   980     419.0 
 180     36663   980     305.8 
 181     42473   977     241.2 
 182     49155   978     299.6 
 183     56839   980     413.9 
 184     65676   977     246.7 
 185     75839   981     246.7 
