PC/104 FIRe Fluorometer 2.0.0
 4/ 8/2025     26669
LED Color:           blue
Gain:               1500
Sample Delay (msec):    10
Number Samples:   3
STF (usec):      150
STRP (#samples):       35
STRI (usec):       60
MTF (ms):        0
MTF (#samples):     0
MTRP (#samples):        0
MTRI (usec):      100
PQLen:     4
Ambient Light Source Power: Off
PAR (uMol/m^2/s):900.00
Comment:
Depth(m):   3.6
Temperature(C):  37.2
Battery(V):  16.56

         Time    EX   Fl-Yield 
DATA--------------------------
   0         0     0       0.0 
   1         1   156     288.5 
   2         2   817     270.1 
   3         3   953     290.0 
   4         4   969     296.2 
   5         5   972     309.0 
   6         6   973     323.1 
   7         7   973     331.3 
   8         8   977     321.4 
   9         9   974     339.2 
  10        10   975     330.6 
  11        11   976     340.2 
  12        12   977     372.6 
  13        13   977     364.0 
  14        14   977     352.4 
  15        15   977     360.3 
  16        16   978     364.0 
  17        17   980     369.7 
  18        18   977     378.7 
  19        19   978     387.5 
  20        20   979     400.4 
  21        21   980     402.7 
  22        22   979     409.3 
  23        23   979     417.8 
  24        24   979     399.0 
  25        25   980     425.2 
  26        26   980     417.3 
  27        27   978     429.4 
  28        28   980     424.8 
  29        29   980     424.1 
  30        30   980     433.0 
  31        31   980     448.3 
  32        32   980     455.1 
  33        33   980     441.2 
  34        34   981     437.6 
  35        35   981     449.5 
  36        36   980     470.1 
  37        37   981     457.4 
  38        38   980     449.7 
  39        39   981     458.0 
  40        40   980     471.4 
  41        41   981     481.1 
  42        42   980     469.7 
  43        43   982     483.7 
  44        44   981     472.3 
  45        45   980     483.0 
  46        46   981     477.7 
  47        47   982     491.5 
  48        48   982     473.5 
  49        49   981     480.8 
  50        50   981     480.8 
  51        51   980     493.5 
  52        52   983     492.7 
  53        53   981     495.1 
  54        54   981     485.6 
  55        55   981     487.3 
  56        56   982     499.7 
  57        57   982     491.5 
  58        58   981     511.7 
  59        59   981     494.7 
  60        60   980     491.2 
  61        61   983     496.8 
  62        62   981     496.1 
  63        63   981     477.1 
  64        64   981     487.9 
  65        65   982     484.4 
  66        66   982     498.0 
  67        67   981     478.1 
  68        68   981     493.7 
  69        69   981     498.8 
  70        70   983     488.3 
  71        71   980     492.2 
  72        72   981     487.6 
  73        73   981     499.5 
  74        74   982     498.3 
  75        75   981     505.9 
  76        76   980     490.8 
  77        77   980     454.4 
  78        78   982     478.3 
  79        79   982     494.9 
  80        80   980     485.7 
  81        81   981     482.2 
  82        82   980     489.8 
  83        83   982     479.6 
  84        84   980     496.6 
  85        85   980     483.3 
  86        86   980     499.7 
  87        87   982     507.5 
  88        88   981     489.0 
  89        89   980     490.8 
  90        90   981     479.1 
  91        91   981     474.3 
  92        92   982     490.8 
  93        93   980     492.2 
  94        94   980     506.8 
  95        95   980     467.3 
  96        96   982     498.3 
  97        97   981     510.4 
  98        98   980     491.2 
  99        99   980     503.4 
 100       100   980     486.7 
 101       101   981     490.7 
 102       102   980     473.8 
 103       103   980     482.3 
 104       104   980     489.8 
 105       105   982     507.8 
 106       106   980     474.5 
 107       107   980     494.2 
 108       108   980     467.0 
 109       109   981     483.9 
 110       110   980     496.6 
 111       111   980     478.6 
 112       112   980     487.8 
 113       113   980     473.8 
 114       114   981     479.8 
 115       115   980     467.3 
 116       116   980     466.3 
 117       117   980     468.0 
 118       118   980     470.1 
 119       119   980     467.3 
 120       120   979     478.7 
 121       121   980     454.1 
 122       122   980     459.2 
 123       123   981     475.7 
 124       124   979     476.7 
 125       125   980     475.2 
 126       126   980     486.4 
 127       127   981     457.4 
 128       128   980     457.5 
 129       129   979     458.6 
 130       130   979     480.4 
 131       131   980     480.3 
 132       132   980     458.2 
 133       133   979     494.4 
 134       134   979     483.1 
 135       135   979     490.0 
 136       136   980     463.3 
 137       137   979     461.0 
 138       138   979     477.0 
 139       139   979     484.5 
 140       140   980     473.5 
 141       141   980     483.0 
 142       142   978     471.4 
 143       143   980     472.1 
 144       144   979     491.0 
 145       145   980     484.4 
 146       146   978     476.5 
 147       147   979     481.1 
 148       148   979     487.2 
 149       149   979     474.3 
 150       150   979     474.3 
 151       210  1000     476.0 
 152       270   997     473.4 
 153       330  1000     409.0 
 154       390   996     421.4 
 155       450   996     356.8 
 156       510   996     401.9 
 157       570   994     363.8 
 158       630   998     391.4 
 159       810   983     337.7 
 160       990   980     345.2 
 161      1170   985     352.6 
 162      1350   986     347.5 
 163      1530   981     403.7 
 164      2070   980     336.4 
 165      2691   973     323.4 
 166      3405   978     301.3 
 167      4226   978     328.2 
 168      5170   976     279.4 
 169      6256   975     294.4 
 170      7505   974     315.2 
 171      8941   977     325.8 
 172     10592   975     274.2 
 173     12491   973     282.6 
 174     14675   979     283.6 
 175     17187   975     287.9 
 176     20076   974     322.0 
 177     23398   977     295.1 
 178     27218   979     303.0 
 179     31611   980     275.5 
 180     36663   980     278.6 
 181     42473   977     318.0 
 182     49155   978     295.2 
 183     56839   980     298.6 
 184     65676   977     274.3 
 185     75839   981     274.3 
   1         1   156     515.0 
   2         2   817     518.6 
   3         3   953     518.0 
   4         4   969     522.9 
   5         5   972     497.6 
   6         6   973     501.5 
   7         7   973     521.1 
   8         8   977     541.1 
   9         9   974     553.0 
  10        10   975     548.7 
  11        11   976     588.5 
  12        12   977     586.1 
  13        13   977     588.2 
  14        14   977     562.3 
  15        15   977     599.5 
  16        16   978     611.1 
  17        17   980     584.7 
  18        18   977     575.9 
  19        19   978     575.7 
  20        20   979     588.0 
  21        21   980     564.3 
  22        22   979     562.5 
  23        23   979     538.0 
  24        24   979     557.0 
  25        25   980     542.9 
  26        26   980     552.0 
  27        27   978     549.8 
  28        28   980     544.2 
  29        29   980     569.4 
  30        30   980     546.9 
  31        31   980     531.6 
  32        32   980     533.3 
  33        33   980     549.0 
  34        34   981     552.2 
  35        35   981     528.4 
  36        36   980     536.1 
  37        37   981     536.9 
  38        38   980     559.9 
  39        39   981     537.5 
  40        40   980     537.8 
  41        41   981     550.5 
  42        42   980     560.5 
  43        43   982     555.3 
  44        44   981     566.4 
  45        45   980     558.8 
  46        46   981     565.4 
  47        47   982     566.9 
  48        48   982     571.6 
  49        49   981     565.4 
  50        50   981     581.7 
  51        51   980     577.2 
  52        52   983     551.4 
  53        53   981     566.1 
  54        54   981     562.0 
  55        55   981     568.1 
  56        56   982     574.0 
  57        57   982     563.5 
  58        58   981     562.0 
  59        59   981     584.1 
  60        60   980     566.7 
  61        61   983     565.3 
  62        62   981     562.0 
  63        63   981     573.9 
  64        64   981     592.6 
  65        65   982     562.5 
  66        66   982     558.7 
  67        67   981     588.5 
  68        68   981     577.6 
  69        69   981     581.0 
  70        70   983     548.0 
  71        71   980     571.8 
  72        72   981     565.1 
  73        73   981     567.1 
  74        74   982     556.7 
  75        75   981     554.9 
  76        76   980     575.5 
  77        77   980     571.8 
  78        78   982     574.3 
  79        79   982     562.1 
  80        80   980     566.3 
  81        81   981     559.0 
  82        82   980     557.8 
  83        83   982     553.3 
  84        84   980     557.1 
  85        85   980     563.6 
  86        86   980     574.1 
  87        87   982     556.7 
  88        88   981     547.4 
  89        89   980     563.3 
  90        90   981     572.9 
  91        91   981     548.4 
  92        92   982     551.9 
  93        93   980     555.1 
  94        94   980     566.0 
  95        95   980     570.7 
  96        96   982     563.5 
  97        97   981     549.8 
  98        98   980     576.2 
  99        99   980     551.4 
 100       100   980     554.1 
 101       101   981     560.7 
 102       102   980     574.5 
 103       103   980     563.6 
 104       104   980     564.6 
 105       105   982     542.8 
 106       106   980     574.8 
 107       107   980     557.8 
 108       108   980     557.5 
 109       109   981     552.8 
 110       110   980     558.2 
 111       111   980     562.9 
 112       112   980     542.2 
 113       113   980     553.1 
 114       114   981     545.7 
 115       115   980     572.8 
 116       116   980     569.4 
 117       117   980     552.0 
 118       118   980     540.5 
 119       119   980     583.7 
 120       120   979     550.2 
 121       121   980     582.7 
 122       122   980     542.5 
 123       123   981     568.8 
 124       124   979     567.2 
 125       125   980     589.1 
 126       126   980     562.9 
 127       127   981     552.8 
 128       128   980     562.9 
 129       129   979     566.2 
 130       130   979     561.8 
 131       131   980     559.2 
 132       132   980     569.0 
 133       133   979     551.6 
 134       134   979     567.6 
 135       135   979     548.5 
 136       136   980     560.2 
 137       137   979     576.8 
 138       138   979     543.1 
 139       139   979     562.5 
 140       140   980     542.9 
 141       141   980     568.0 
 142       142   978     568.5 
 143       143   980     531.0 
 144       144   979     559.4 
 145       145   980     560.9 
 146       146   978     559.0 
 147       147   979     531.2 
 148       148   979     566.9 
 149       149   979     546.1 
 150       150   979     546.1 
 151       210  1000     473.0 
 152       270   997     531.9 
 153       330  1000     521.7 
 154       390   996     528.4 
 155       450   996     536.8 
 156       510   996     527.4 
 157       570   994     499.0 
 158       630   998     481.3 
 159       810   983     463.9 
 160       990   980     542.9 
 161      1170   985     517.8 
 162      1350   986     466.5 
 163      1530   981     520.9 
 164      2070   980     465.3 
 165      2691   973     477.9 
 166      3405   978     448.2 
 167      4226   978     510.9 
 168      5170   976     408.1 
 169      6256   975     420.5 
 170      7505   974     423.7 
 171      8941   977     440.1 
 172     10592   975     399.0 
 173     12491   973     353.5 
 174     14675   979     383.7 
 175     17187   975     387.7 
 176     20076   974     342.2 
 177     23398   977     337.1 
 178     27218   979     407.6 
 179     31611   980     327.9 
 180     36663   980     333.0 
 181     42473   977     327.2 
 182     49155   978     355.8 
 183     56839   980     343.9 
 184     65676   977     337.1 
 185     75839   981     337.1 
