PC/104 FIRe Fluorometer 2.0.0
 4/ 8/2025     27973
LED Color:           blue
Gain:               2000
Sample Delay (msec):    10
Number Samples:   3
STF (usec):      150
STRP (#samples):       35
STRI (usec):       60
MTF (ms):        0
MTF (#samples):     0
MTRP (#samples):        0
MTRI (usec):      100
PQLen:     4
Ambient Light Source Power: Off
PAR (uMol/m^2/s):900.00
Comment:
Depth(m):   4.0
Temperature(C):  46.4
Battery(V):  16.21

         Time    EX   Fl-Yield 
DATA--------------------------
   0         0     0       0.0 
   1         1   156     200.9 
   2         2   817     192.6 
   3         3   953     220.4 
   4         4   969     162.4 
   5         5   972     136.8 
   6         6   973     212.7 
   7         7   973     204.5 
   8         8   977     144.0 
   9         9   974     154.0 
  10        10   975     180.2 
  11        11   976     262.3 
  12        12   977     202.7 
  13        13   977     216.0 
  14        14   977     163.1 
  15        15   977     189.0 
  16        16   978     254.3 
  17        17   980     163.6 
  18        18   977     200.3 
  19        19   978     137.4 
  20        20   979     286.3 
  21        21   980     209.5 
  22        22   979     195.4 
  23        23   979     172.6 
  24        24   979     242.4 
  25        25   980     270.7 
  26        26   980     173.5 
  27        27   978     177.9 
  28        28   980     239.1 
  29        29   980     324.8 
  30        30   980     236.7 
  31        31   980     206.5 
  32        32   980     251.0 
  33        33   980     261.2 
  34        34   981     238.5 
  35        35   981     241.9 
  36        36   980     245.6 
  37        37   981     276.9 
  38        38   980     279.6 
  39        39   981     225.6 
  40        40   980     242.2 
  41        41   981     301.1 
  42        42   980     355.8 
  43        43   982     227.4 
  44        44   981     212.7 
  45        45   980     237.8 
  46        46   981     317.0 
  47        47   982     343.9 
  48        48   982     256.3 
  49        49   981     222.6 
  50        50   981     229.4 
  51        51   980     266.0 
  52        52   983     234.0 
  53        53   981     184.8 
  54        54   981     270.1 
  55        55   981     232.1 
  56        56   982     206.4 
  57        57   982     223.0 
  58        58   981     204.9 
  59        59   981     292.9 
  60        60   980     293.2 
  61        61   983     157.0 
  62        62   981     234.8 
  63        63   981     279.0 
  64        64   981     234.5 
  65        65   982     246.8 
  66        66   982     265.8 
  67        67   981     232.8 
  68        68   981     311.9 
  69        69   981     270.1 
  70        70   983     210.2 
  71        71   980     217.3 
  72        72   981     283.4 
  73        73   981     314.3 
  74        74   982     208.8 
  75        75   981     220.2 
  76        76   980     284.4 
  77        77   980     359.2 
  78        78   982     302.1 
  79        79   982     216.9 
  80        80   980     220.7 
  81        81   981     315.7 
  82        82   980     276.9 
  83        83   982     247.8 
  84        84   980     269.0 
  85        85   980     302.4 
  86        86   980     309.9 
  87        87   982     285.8 
  88        88   981     258.2 
  89        89   980     287.8 
  90        90   981     291.2 
  91        91   981     263.7 
  92        92   982     261.7 
  93        93   980     207.5 
  94        94   980     317.3 
  95        95   980     286.4 
  96        96   982     193.8 
  97        97   981     214.4 
  98        98   980     257.8 
  99        99   980     311.2 
 100       100   980     222.8 
 101       101   981     176.4 
 102       102   980     230.3 
 103       103   980     311.6 
 104       104   980     262.2 
 105       105   982     155.1 
 106       106   980     212.6 
 107       107   980     272.1 
 108       108   980     276.9 
 109       109   981     270.5 
 110       110   980     246.6 
 111       111   980     248.0 
 112       112   980     303.1 
 113       113   980     226.5 
 114       114   981     289.8 
 115       115   980     276.9 
 116       116   980     313.6 
 117       117   980     253.7 
 118       118   980     253.4 
 119       119   980     252.4 
 120       120   979     305.4 
 121       121   980     325.9 
 122       122   980     243.5 
 123       123   981     257.2 
 124       124   979     273.1 
 125       125   980     358.2 
 126       126   980     279.6 
 127       127   981     254.8 
 128       128   980     286.1 
 129       129   979     315.6 
 130       130   979     342.2 
 131       131   980     216.3 
 132       132   980     246.6 
 133       133   979     296.2 
 134       134   979     318.0 
 135       135   979     230.8 
 136       136   980     188.4 
 137       137   979     233.6 
 138       138   979     327.9 
 139       139   979     240.4 
 140       140   980     191.8 
 141       141   980     259.5 
 142       142   978     241.0 
 143       143   980     233.3 
 144       144   979     266.6 
 145       145   980     218.4 
 146       146   978     274.7 
 147       147   979     310.9 
 148       148   979     263.2 
 149       149   979     328.6 
 150       150   979     328.6 
 151       210  1000     283.0 
 152       270   997     158.5 
 153       330  1000     281.3 
 154       390   996     363.8 
 155       450   996     176.4 
 156       510   996     200.1 
 157       570   994     360.5 
 158       630   998     381.1 
 159       810   983     463.9 
 160       990   980     406.1 
 161      1170   985     197.3 
 162      1350   986     105.1 
 163      1530   981     137.3 
 164      2070   980     309.2 
 165      2691   973     352.5 
 166      3405   978     251.2 
 167      4226   978     285.3 
 168      5170   976     183.4 
 169      6256   975     287.2 
 170      7505   974      51.3 
 171      8941   977     173.0 
 172     10592   975     271.8 
 173     12491   973      96.6 
 174     14675   979     196.5 
 175     17187   975     287.2 
 176     20076   974     114.3 
 177     23398   977     207.8 
 178     27218   979     299.6 
 179     31611   980     113.3 
 180     36663   980     195.9 
 181     42473   977      57.7 
 182     49155   978     301.6 
 183     56839   980     115.6 
 184     65676   977     -20.8 
 185     75839   981     -20.8 
   1         1   156     136.8 
   2         2   817     398.2 
   3         3   953     423.2 
   4         4   969     413.1 
   5         5   972     340.5 
   6         6   973     409.7 
   7         7   973     409.7 
   8         8   977     444.9 
   9         9   974     468.2 
  10        10   975     464.6 
  11        11   976     502.7 
  12        12   977     584.8 
  13        13   977     572.2 
  14        14   977     536.3 
  15        15   977     618.9 
  16        16   978     571.6 
  17        17   980     625.2 
  18        18   977     499.5 
  19        19   978     556.6 
  20        20   979     520.6 
  21        21   980     563.9 
  22        22   979     450.8 
  23        23   979     408.6 
  24        24   979     399.7 
  25        25   980     477.2 
  26        26   980     486.4 
  27        27   978     409.3 
  28        28   980     426.5 
  29        29   980     450.3 
  30        30   980     449.7 
  31        31   980     397.6 
  32        32   980     324.8 
  33        33   980     423.8 
  34        34   981     411.5 
  35        35   981     462.5 
  36        36   980     318.7 
  37        37   981     357.5 
  38        38   980     405.1 
  39        39   981     428.1 
  40        40   980     431.6 
  41        41   981     378.5 
  42        42   980     441.8 
  43        43   982     407.7 
  44        44   981     405.4 
  45        45   980     341.8 
  46        46   981     414.5 
  47        47   982     456.6 
  48        48   982     409.4 
  49        49   981     359.2 
  50        50   981     384.6 
  51        51   980     415.0 
  52        52   983     484.9 
  53        53   981     371.0 
  54        54   981     340.1 
  55        55   981     371.7 
  56        56   982     472.8 
  57        57   982     404.3 
  58        58   981     329.6 
  59        59   981     329.6 
  60        60   980     488.1 
  61        61   983     386.9 
  62        62   981     388.7 
  63        63   981     375.5 
  64        64   981     423.4 
  65        65   982     471.8 
  66        66   982     391.4 
  67        67   981     366.0 
  68        68   981     379.5 
  69        69   981     404.7 
  70        70   983     364.5 
  71        71   980     293.2 
  72        72   981     328.2 
  73        73   981     408.8 
  74        74   982     452.8 
  75        75   981     343.9 
  76        76   980     320.1 
  77        77   980     340.8 
  78        78   982     416.8 
  79        79   982     370.3 
  80        80   980     295.6 
  81        81   981     317.4 
  82        82   980     412.2 
  83        83   982     354.4 
  84        84   980     281.0 
  85        85   980     356.5 
  86        86   980     346.6 
  87        87   982     397.1 
  88        88   981     340.1 
  89        89   980     345.6 
  90        90   981     338.1 
  91        91   981     400.3 
  92        92   982     339.1 
  93        93   980     304.1 
  94        94   980     309.2 
  95        95   980     353.7 
  96        96   982     405.3 
  97        97   981     321.8 
  98        98   980     357.1 
  99        99   980     339.1 
 100       100   980     357.5 
 101       101   981     353.0 
 102       102   980     300.3 
 103       103   980     365.3 
 104       104   980     391.2 
 105       105   982     339.8 
 106       106   980     281.3 
 107       107   980     268.0 
 108       108   980     381.3 
 109       109   981     388.4 
 110       110   980     354.8 
 111       111   980     330.6 
 112       112   980     401.0 
 113       113   980     406.5 
 114       114   981     346.2 
 115       115   980     289.1 
 116       116   980     392.2 
 117       117   980     421.1 
 118       118   980     381.0 
 119       119   980     372.8 
 120       120   979     376.6 
 121       121   980     374.5 
 122       122   980     459.9 
 123       123   981     363.2 
 124       124   979     419.5 
 125       125   980     419.0 
 126       126   980     482.0 
 127       127   981     409.8 
 128       128   980     370.1 
 129       129   979     422.2 
 130       130   979     464.1 
 131       131   980     484.0 
 132       132   980     406.1 
 133       133   979     425.6 
 134       134   979     439.9 
 135       135   979     508.0 
 136       136   980     466.0 
 137       137   979     430.4 
 138       138   979     452.8 
 139       139   979     494.7 
 140       140   980     484.0 
 141       141   980     422.8 
 142       142   978     416.8 
 143       143   980     509.5 
 144       144   979     465.4 
 145       145   980     377.2 
 146       146   978     428.8 
 147       147   979     443.0 
 148       148   979     488.3 
 149       149   979     448.1 
 150       150   979     448.1 
 151       210  1000     142.7 
 152       270   997     418.6 
 153       330  1000     469.3 
 154       390   996     262.7 
 155       450   996     280.8 
 156       510   996     557.6 
 157       570   994     227.0 
 158       630   998     417.5 
 159       810   983     258.1 
 160       990   980     351.4 
 161      1170   985     262.9 
 162      1350   986     331.3 
 163      1530   981     231.4 
 164      2070   980     238.1 
 165      2691   973     249.4 
 166      3405   978     241.0 
 167      4226   978     328.6 
 168      5170   976     496.2 
 169      6256   975     459.5 
 170      7505   974     418.5 
 171      8941   977     408.1 
 172     10592   975     474.9 
 173     12491   973     259.0 
 174     14675   979     150.8 
 175     17187   975     230.1 
 176     20076   974     283.4 
 177     23398   977     239.8 
 178     27218   979     174.7 
 179     31611   980     129.9 
 180     36663   980     425.5 
 181     42473   977     309.8 
 182     49155   978     280.8 
 183     56839   980     162.9 
 184     65676   977     200.6 
 185     75839   981     200.6 
