PC/104 FIRe Fluorometer 2.0.0
 4/ 8/2025     39781
LED Color:           blue
Gain:               1800
Sample Delay (msec):    10
Number Samples:   3
STF (usec):      150
STRP (#samples):       35
STRI (usec):       60
MTF (ms):        0
MTF (#samples):     0
MTRP (#samples):        0
MTRI (usec):      100
PQLen:     4
Ambient Light Source Power: Off
PAR (uMol/m^2/s):721.99
Comment:
Depth(m):  -1.9
Temperature(C):  75.1
Battery(V):  14.09

         Time    EX   Fl-Yield 
DATA--------------------------
   0         0     0       0.0 
   1         1   156      94.0 
   2         2   817     318.2 
   3         3   953     322.1 
   4         4   969     359.8 
   5         5   972     354.3 
   6         6   973     338.8 
   7         7   973     355.3 
   8         8   977     353.8 
   9         9   974     359.7 
  10        10   975     374.4 
  11        11   976     422.1 
  12        12   977     401.9 
  13        13   977     430.6 
  14        14   977     394.4 
  15        15   977     429.2 
  16        16   978     436.3 
  17        17   980     458.2 
  18        18   977     418.3 
  19        19   978     416.5 
  20        20   979     467.1 
  21        21   980     471.1 
  22        22   979     453.5 
  23        23   979     475.0 
  24        24   979     464.4 
  25        25   980     487.4 
  26        26   980     488.1 
  27        27   978     471.7 
  28        28   980     471.8 
  29        29   980     473.1 
  30        30   980     507.1 
  31        31   980     497.6 
  32        32   980     482.0 
  33        33   980     488.4 
  34        34   981     519.9 
  35        35   981     498.8 
  36        36   980     496.3 
  37        37   981     504.9 
  38        38   980     519.7 
  39        39   981     519.5 
  40        40   980     508.2 
  41        41   981     493.4 
  42        42   980     539.1 
  43        43   982     541.1 
  44        44   981     505.3 
  45        45   980     515.6 
  46        46   981     516.5 
  47        47   982     526.8 
  48        48   982     537.3 
  49        49   981     528.7 
  50        50   981     534.5 
  51        51   980     542.9 
  52        52   983     556.8 
  53        53   981     513.4 
  54        54   981     528.7 
  55        55   981     539.9 
  56        56   982     557.0 
  57        57   982     526.1 
  58        58   981     507.3 
  59        59   981     530.8 
  60        60   980     547.3 
  61        61   983     538.5 
  62        62   981     516.1 
  63        63   981     532.4 
  64        64   981     532.8 
  65        65   982     536.0 
  66        66   982     538.4 
  67        67   981     521.6 
  68        68   981     551.8 
  69        69   981     532.1 
  70        70   983     538.1 
  71        71   980     515.0 
  72        72   981     542.3 
  73        73   981     552.5 
  74        74   982     553.0 
  75        75   981     512.1 
  76        76   980     542.5 
  77        77   980     557.5 
  78        78   982     523.8 
  79        79   982     546.2 
  80        80   980     534.0 
  81        81   981     544.7 
  82        82   980     558.2 
  83        83   982     546.5 
  84        84   980     555.4 
  85        85   980     533.0 
  86        86   980     562.6 
  87        87   982     549.2 
  88        88   981     552.5 
  89        89   980     536.1 
  90        90   981     528.0 
  91        91   981     576.6 
  92        92   982     535.6 
  93        93   980     541.8 
  94        94   980     565.3 
  95        95   980     558.8 
  96        96   982     576.4 
  97        97   981     536.2 
  98        98   980     545.6 
  99        99   980     530.3 
 100       100   980     562.9 
 101       101   981     539.6 
 102       102   980     535.4 
 103       103   980     573.1 
 104       104   980     545.6 
 105       105   982     544.5 
 106       106   980     559.9 
 107       107   980     534.4 
 108       108   980     558.2 
 109       109   981     559.3 
 110       110   980     557.1 
 111       111   980     527.2 
 112       112   980     561.2 
 113       113   980     541.2 
 114       114   981     543.3 
 115       115   980     556.1 
 116       116   980     566.7 
 117       117   980     574.5 
 118       118   980     566.7 
 119       119   980     543.9 
 120       120   979     541.0 
 121       121   980     575.5 
 122       122   980     585.7 
 123       123   981     518.9 
 124       124   979     562.8 
 125       125   980     555.8 
 126       126   980     579.3 
 127       127   981     555.2 
 128       128   980     552.4 
 129       129   979     580.9 
 130       130   979     562.5 
 131       131   980     575.9 
 132       132   980     569.4 
 133       133   979     522.3 
 134       134   979     591.4 
 135       135   979     569.3 
 136       136   980     569.4 
 137       137   979     543.1 
 138       138   979     570.3 
 139       139   979     576.4 
 140       140   980     554.8 
 141       141   980     540.1 
 142       142   978     558.6 
 143       143   980     566.0 
 144       144   979     553.6 
 145       145   980     540.5 
 146       146   978     562.0 
 147       147   979     568.6 
 148       148   979     557.7 
 149       149   979     570.7 
 150       150   979     570.7 
 151       210  1000     544.7 
 152       270   997     540.3 
 153       330  1000     519.0 
 154       390   996     553.9 
 155       450   996     574.0 
 156       510   996     524.4 
 157       570   994     474.2 
 158       630   998     509.7 
 159       810   983     446.6 
 160       990   980     483.7 
 161      1170   985     435.5 
 162      1350   986     412.4 
 163      1530   981     499.5 
 164      2070   980     471.1 
 165      2691   973     396.7 
 166      3405   978     387.2 
 167      4226   978     425.0 
 168      5170   976     441.9 
 169      6256   975     322.1 
 170      7505   974     366.9 
 171      8941   977     409.8 
 172     10592   975     346.3 
 173     12491   973     379.9 
 174     14675   979     433.1 
 175     17187   975     398.3 
 176     20076   974     397.0 
 177     23398   977     404.0 
 178     27218   979     424.6 
 179     31611   980     469.4 
 180     36663   980     396.9 
 181     42473   977     362.0 
 182     49155   978     298.6 
 183     56839   980     353.7 
 184     65676   977     408.1 
 185     75839   981     408.1 
   1         1   156     324.8 
   2         2   817     625.1 
   3         3   953     657.9 
   4         4   969     658.4 
   5         5   972     634.1 
   6         6   973     660.2 
   7         7   973     675.2 
   8         8   977     632.9 
   9         9   974     656.7 
  10        10   975     702.9 
  11        11   976     717.9 
  12        12   977     717.5 
  13        13   977     749.9 
  14        14   977     739.0 
  15        15   977     726.7 
  16        16   978     739.6 
  17        17   980     727.6 
  18        18   977     732.5 
  19        19   978     716.1 
  20        20   979     699.0 
  21        21   980     682.0 
  22        22   979     715.7 
  23        23   979     723.2 
  24        24   979     739.2 
  25        25   980     696.9 
  26        26   980     713.6 
  27        27   978     747.4 
  28        28   980     701.0 
  29        29   980     692.5 
  30        30   980     732.3 
  31        31   980     706.5 
  32        32   980     744.6 
  33        33   980     696.6 
  34        34   981     701.3 
  35        35   981     704.0 
  36        36   980     710.5 
  37        37   981     755.0 
  38        38   980     699.3 
  39        39   981     705.7 
  40        40   980     724.1 
  41        41   981     721.0 
  42        42   980     699.3 
  43        43   982     696.9 
  44        44   981     744.8 
  45        45   980     722.8 
  46        46   981     754.7 
  47        47   982     732.9 
  48        48   982     729.5 
  49        49   981     740.4 
  50        50   981     765.2 
  51        51   980     737.4 
  52        52   983     722.6 
  53        53   981     718.0 
  54        54   981     776.1 
  55        55   981     729.5 
  56        56   982     740.7 
  57        57   982     730.1 
  58        58   981     745.2 
  59        59   981     740.7 
  60        60   980     723.1 
  61        61   983     731.4 
  62        62   981     740.4 
  63        63   981     733.3 
  64        64   981     728.8 
  65        65   982     700.3 
  66        66   982     742.4 
  67        67   981     708.8 
  68        68   981     712.2 
  69        69   981     717.3 
  70        70   983     713.1 
  71        71   980     745.2 
  72        72   981     759.1 
  73        73   981     754.3 
  74        74   982     711.1 
  75        75   981     711.5 
  76        76   980     737.8 
  77        77   980     724.1 
  78        78   982     708.4 
  79        79   982     716.6 
  80        80   980     714.3 
  81        81   981     697.6 
  82        82   980     701.0 
  83        83   982     720.6 
  84        84   980     711.2 
  85        85   980     732.0 
  86        86   980     703.4 
  87        87   982     685.0 
  88        88   981     706.4 
  89        89   980     725.2 
  90        90   981     718.3 
  91        91   981     715.9 
  92        92   982     724.7 
  93        93   980     719.0 
  94        94   980     716.3 
  95        95   980     709.9 
  96        96   982     684.0 
  97        97   981     707.4 
  98        98   980     719.4 
  99        99   980     686.1 
 100       100   980     695.2 
 101       101   981     703.7 
 102       102   980     712.2 
 103       103   980     720.7 
 104       104   980     657.5 
 105       105   982     693.1 
 106       106   980     689.8 
 107       107   980     705.8 
 108       108   980     689.1 
 109       109   981     708.5 
 110       110   980     693.5 
 111       111   980     698.0 
 112       112   980     686.1 
 113       113   980     699.3 
 114       114   981     709.1 
 115       115   980     707.8 
 116       116   980     688.8 
 117       117   980     700.3 
 118       118   980     697.3 
 119       119   980     716.0 
 120       120   979     718.8 
 121       121   980     681.6 
 122       122   980     699.7 
 123       123   981     700.6 
 124       124   979     723.5 
 125       125   980     699.0 
 126       126   980     687.4 
 127       127   981     687.7 
 128       128   980     717.7 
 129       129   979     716.4 
 130       130   979     677.2 
 131       131   980     693.5 
 132       132   980     726.2 
 133       133   979     703.8 
 134       134   979     700.0 
 135       135   979     723.2 
 136       136   980     706.5 
 137       137   979     697.3 
 138       138   979     670.4 
 139       139   979     709.2 
 140       140   980     705.1 
 141       141   980     717.7 
 142       142   978     722.2 
 143       143   980     716.3 
 144       144   979     735.8 
 145       145   980     744.9 
 146       146   978     731.4 
 147       147   979     708.9 
 148       148   979     733.1 
 149       149   979     713.3 
 150       150   979     713.3 
 151       210  1000     736.7 
 152       270   997     779.7 
 153       330  1000     740.0 
 154       390   996     732.9 
 155       450   996     662.3 
 156       510   996     732.3 
 157       570   994     692.2 
 158       630   998     688.7 
 159       810   983     741.3 
 160       990   980     719.0 
 161      1170   985     732.0 
 162      1350   986     662.6 
 163      1530   981     759.8 
 164      2070   980     720.1 
 165      2691   973     658.8 
 166      3405   978     651.3 
 167      4226   978     709.6 
 168      5170   976     641.4 
 169      6256   975     667.4 
 170      7505   974     624.2 
 171      8941   977     591.3 
 172     10592   975     588.4 
 173     12491   973     530.0 
 174     14675   979     582.6 
 175     17187   975     561.4 
 176     20076   974     448.7 
 177     23398   977     546.9 
 178     27218   979     485.9 
 179     31611   980     447.6 
 180     36663   980     435.7 
 181     42473   977     429.5 
 182     49155   978     470.0 
 183     56839   980     459.2 
 184     65676   977     411.5 
 185     75839   981     411.5 
