PC/104 FIRe Fluorometer 2.0.0
 4/ 8/2025     28330
LED Color:           blue
Gain:               2000
Sample Delay (msec):    10
Number Samples:   3
STF (usec):      150
STRP (#samples):       35
STRI (usec):       60
MTF (ms):        0
MTF (#samples):     0
MTRP (#samples):        0
MTRI (usec):      100
PQLen:     4
Ambient Light Source Power: Off
PAR (uMol/m^2/s):410.77
Comment:
Depth(m):   4.1
Temperature(C):  47.6
Battery(V):  16.18

         Time    EX   Fl-Yield 
DATA--------------------------
   0         0     0       0.0 
   1         1   156      36.3 
   2         2   817      94.2 
   3         3   953     114.4 
   4         4   969     125.6 
   5         5   972      91.6 
   6         6   973      92.2 
   7         7   973     115.8 
   8         8   977     149.8 
   9         9   974     167.7 
  10        10   975     141.9 
  11        11   976     186.5 
  12        12   977     165.5 
  13        13   977     105.4 
  14        14   977     124.5 
  15        15   977     116.7 
  16        16   978     176.2 
  17        17   980     156.5 
  18        18   977     122.1 
  19        19   978     150.6 
  20        20   979     113.7 
  21        21   980     200.3 
  22        22   979     139.6 
  23        23   979     160.4 
  24        24   979     106.6 
  25        25   980     166.3 
  26        26   980     115.0 
  27        27   978     157.1 
  28        28   980     166.3 
  29        29   980     180.6 
  30        30   980     141.2 
  31        31   980     126.9 
  32        32   980     106.1 
  33        33   980     193.2 
  34        34   981     179.1 
  35        35   981     161.1 
  36        36   980     137.4 
  37        37   981     155.3 
  38        38   980     177.6 
  39        39   981     172.3 
  40        40   980     208.8 
  41        41   981     141.7 
  42        42   980     195.9 
  43        43   982     139.2 
  44        44   981     170.2 
  45        45   980     176.5 
  46        46   981     198.4 
  47        47   982     143.2 
  48        48   982     136.5 
  49        49   981     136.9 
  50        50   981     171.6 
  51        51   980     235.7 
  52        52   983     149.2 
  53        53   981     129.5 
  54        54   981     138.6 
  55        55   981     186.2 
  56        56   982     152.1 
  57        57   982     152.1 
  58        58   981     179.4 
  59        59   981     207.6 
  60        60   980     173.5 
  61        61   983     121.4 
  62        62   981     149.5 
  63        63   981     139.0 
  64        64   981     188.2 
  65        65   982     153.1 
  66        66   982     112.7 
  67        67   981     173.6 
  68        68   981     157.7 
  69        69   981     190.6 
  70        70   983     156.7 
  71        71   980     127.2 
  72        72   981     185.9 
  73        73   981     171.9 
  74        74   982     133.7 
  75        75   981     145.1 
  76        76   980     154.8 
  77        77   980     140.8 
  78        78   982      66.9 
  79        79   982     155.8 
  80        80   980     134.4 
  81        81   981     212.0 
  82        82   980     140.8 
  83        83   982     131.0 
  84        84   980     102.4 
  85        85   980     149.3 
  86        86   980     187.8 
  87        87   982     169.4 
  88        88   981     178.7 
  89        89   980     186.7 
  90        90   981     183.5 
  91        91   981     162.4 
  92        92   982     194.2 
  93        93   980     145.2 
  94        94   980     184.0 
  95        95   980     205.8 
  96        96   982     174.1 
  97        97   981     188.2 
  98        98   980     218.7 
  99        99   980     185.0 
 100       100   980     170.4 
 101       101   981     154.6 
 102       102   980     168.7 
 103       103   980     217.3 
 104       104   980     139.8 
 105       105   982     146.3 
 106       106   980     174.8 
 107       107   980     184.0 
 108       108   980     226.9 
 109       109   981     196.4 
 110       110   980     167.0 
 111       111   980     194.2 
 112       112   980     200.7 
 113       113   980     184.0 
 114       114   981     198.4 
 115       115   980     238.4 
 116       116   980     220.7 
 117       117   980     158.5 
 118       118   980     245.9 
 119       119   980     176.5 
 120       120   979     256.0 
 121       121   980     179.6 
 122       122   980     121.4 
 123       123   981     150.5 
 124       124   979     197.5 
 125       125   980     201.7 
 126       126   980     128.6 
 127       127   981     176.0 
 128       128   980     145.9 
 129       129   979     196.8 
 130       130   979     170.2 
 131       131   980     204.4 
 132       132   980     222.4 
 133       133   979     206.0 
 134       134   979     149.5 
 135       135   979     164.8 
 136       136   980     179.9 
 137       137   979     208.0 
 138       138   979     194.4 
 139       139   979     160.7 
 140       140   980     142.9 
 141       141   980     187.8 
 142       142   978     194.3 
 143       143   980     171.8 
 144       144   979     160.7 
 145       145   980     146.3 
 146       146   978     177.2 
 147       147   979     206.0 
 148       148   979     159.0 
 149       149   979     207.0 
 150       150   979     207.0 
 151       210  1000     263.3 
 152       270   997     268.8 
 153       330  1000     237.7 
 154       390   996     218.5 
 155       450   996     203.8 
 156       510   996      92.4 
 157       570   994     197.5 
 158       630   998     249.2 
 159       810   983     169.2 
 160       990   980     308.2 
 161      1170   985     199.3 
 162      1350   986     270.5 
 163      1530   981     191.6 
 164      2070   980     136.4 
 165      2691   973     123.0 
 166      3405   978     171.4 
 167      4226   978      13.0 
 168      5170   976     240.8 
 169      6256   975     113.8 
 170      7505   974     237.5 
 171      8941   977     336.1 
 172     10592   975     121.7 
 173     12491   973     159.6 
 174     14675   979     160.7 
 175     17187   975     154.5 
 176     20076   974     114.0 
 177     23398   977     112.9 
 178     27218   979     207.4 
 179     31611   980     168.0 
 180     36663   980     198.6 
 181     42473   977     180.1 
 182     49155   978     187.5 
 183     56839   980     138.4 
 184     65676   977     164.8 
 185     75839   981     164.8 
   1         1   156     414.5 
   2         2   817     229.7 
   3         3   953     170.0 
   4         4   969     270.4 
   5         5   972     322.7 
   6         6   973     276.5 
   7         7   973     300.1 
   8         8   977     236.4 
   9         9   974     320.7 
  10        10   975     354.9 
  11        11   976     299.9 
  12        12   977     383.1 
  13        13   977     445.2 
  14        14   977     439.1 
  15        15   977     354.5 
  16        16   978     379.0 
  17        17   980     430.6 
  18        18   977     351.4 
  19        19   978     323.1 
  20        20   979     240.0 
  21        21   980     295.6 
  22        22   979     335.4 
  23        23   979     286.3 
  24        24   979     278.5 
  25        25   980     248.0 
  26        26   980     267.3 
  27        27   978     291.8 
  28        28   980     263.3 
  29        29   980     276.2 
  30        30   980     264.6 
  31        31   980     263.9 
  32        32   980     288.4 
  33        33   980     221.4 
  34        34   981     245.7 
  35        35   981     274.5 
  36        36   980     287.4 
  37        37   981     218.1 
  38        38   980     228.2 
  39        39   981     225.6 
  40        40   980     292.9 
  41        41   981     266.4 
  42        42   980     234.4 
  43        43   982     264.4 
  44        44   981     306.5 
  45        45   980     269.7 
  46        46   981     258.9 
  47        47   982     251.9 
  48        48   982     292.9 
  49        49   981     274.2 
  50        50   981     271.5 
  51        51   980     257.1 
  52        52   983     270.6 
  53        53   981     289.2 
  54        54   981     281.3 
  55        55   981     211.7 
  56        56   982     275.6 
  57        57   982     339.1 
  58        58   981     315.0 
  59        59   981     265.4 
  60        60   980     268.7 
  61        61   983     334.0 
  62        62   981     306.2 
  63        63   981     296.6 
  64        64   981     264.0 
  65        65   982     350.3 
  66        66   982     297.4 
  67        67   981     228.3 
  68        68   981     234.8 
  69        69   981     291.2 
  70        70   983     299.8 
  71        71   980     284.4 
  72        72   981     245.7 
  73        73   981     254.5 
  74        74   982     316.7 
  75        75   981     305.8 
  76        76   980     296.6 
  77        77   980     218.7 
  78        78   982     282.4 
  79        79   982     297.4 
  80        80   980     261.9 
  81        81   981     246.0 
  82        82   980     285.4 
  83        83   982     285.8 
  84        84   980     271.4 
  85        85   980     233.7 
  86        86   980     266.0 
  87        87   982     315.3 
  88        88   981     259.9 
  89        89   980     250.0 
  90        90   981     229.0 
  91        91   981     272.9 
  92        92   982     315.3 
  93        93   980     253.4 
  94        94   980     229.9 
  95        95   980     302.4 
  96        96   982     289.2 
  97        97   981     241.9 
  98        98   980     287.4 
  99        99   980     254.4 
 100       100   980     317.0 
 101       101   981     308.5 
 102       102   980     290.1 
 103       103   980     172.1 
 104       104   980     326.9 
 105       105   982     301.4 
 106       106   980     327.6 
 107       107   980     242.2 
 108       108   980     206.8 
 109       109   981     258.2 
 110       110   980     259.2 
 111       111   980     295.6 
 112       112   980     212.9 
 113       113   980     282.0 
 114       114   981     234.5 
 115       115   980     264.6 
 116       116   980     258.5 
 117       117   980     312.2 
 118       118   980     273.1 
 119       119   980     274.5 
 120       120   979     252.3 
 121       121   980     240.5 
 122       122   980     315.6 
 123       123   981     300.0 
 124       124   979     259.8 
 125       125   980     271.8 
 126       126   980     286.4 
 127       127   981     342.2 
 128       128   980     292.2 
 129       129   979     257.4 
 130       130   979     277.2 
 131       131   980     329.3 
 132       132   980     355.1 
 133       133   979     286.0 
 134       134   979     286.0 
 135       135   979     330.6 
 136       136   980     349.0 
 137       137   979     315.3 
 138       138   979     312.6 
 139       139   979     293.8 
 140       140   980     366.0 
 141       141   980     256.5 
 142       142   978     291.8 
 143       143   980     267.0 
 144       144   979     371.5 
 145       145   980     313.3 
 146       146   978     288.7 
 147       147   979     249.2 
 148       148   979     271.4 
 149       149   979     279.5 
 150       150   979     279.5 
 151       210  1000      37.0 
 152       270   997     172.2 
 153       330  1000     363.7 
 154       390   996     288.2 
 155       450   996     106.8 
 156       510   996     355.4 
 157       570   994     346.7 
 158       630   998     350.4 
 159       810   983     425.9 
 160       990   980     151.7 
 161      1170   985     197.0 
 162      1350   986     319.1 
 163      1530   981     309.2 
 164      2070   980     424.5 
 165      2691   973     202.8 
 166      3405   978     216.4 
 167      4226   978     247.1 
 168      5170   976     190.6 
 169      6256   975     319.0 
 170      7505   974     328.2 
 171      8941   977     256.2 
 172     10592   975     255.4 
 173     12491   973     163.4 
 174     14675   979     337.8 
 175     17187   975     351.1 
 176     20076   974     342.6 
 177     23398   977     275.3 
 178     27218   979     382.0 
 179     31611   980     406.5 
 180     36663   980     195.2 
 181     42473   977     154.6 
 182     49155   978      67.1 
 183     56839   980     199.7 
 184     65676   977     279.8 
 185     75839   981     279.8 
