PC/104 FIRe Fluorometer 2.0.0
 4/ 8/2025     29394
LED Color:           blue
Gain:               1800
Sample Delay (msec):    10
Number Samples:   3
STF (usec):      150
STRP (#samples):       35
STRI (usec):       60
MTF (ms):        0
MTF (#samples):     0
MTRP (#samples):        0
MTRI (usec):      100
PQLen:     4
Ambient Light Source Power: Off
PAR (uMol/m^2/s):671.17
Comment:
Depth(m):   2.9
Temperature(C):  51.5
Battery(V):  16.01

         Time    EX   Fl-Yield 
DATA--------------------------
   0         0     0       0.0 
   1         1   156     262.8 
   2         2   817     253.0 
   3         3   953     254.6 
   4         4   969     302.7 
   5         5   972     306.9 
   6         6   973     311.1 
   7         7   973     304.2 
   8         8   977     293.4 
   9         9   974     327.5 
  10        10   975     337.4 
  11        11   976     348.0 
  12        12   977     295.5 
  13        13   977     349.7 
  14        14   977     382.5 
  15        15   977     351.1 
  16        16   978     350.0 
  17        17   980     333.0 
  18        18   977     372.2 
  19        19   978     379.7 
  20        20   979     339.1 
  21        21   980     363.6 
  22        22   979     368.7 
  23        23   979     375.6 
  24        24   979     324.8 
  25        25   980     363.9 
  26        26   980     361.2 
  27        27   978     428.1 
  28        28   980     394.9 
  29        29   980     410.9 
  30        30   980     375.9 
  31        31   980     411.9 
  32        32   980     371.8 
  33        33   980     377.9 
  34        34   981     378.2 
  35        35   981     404.3 
  36        36   980     404.8 
  37        37   981     393.5 
  38        38   980     401.4 
  39        39   981     380.6 
  40        40   980     423.1 
  41        41   981     415.9 
  42        42   980     420.1 
  43        43   982     381.2 
  44        44   981     395.9 
  45        45   980     427.6 
  46        46   981     433.2 
  47        47   982     433.8 
  48        48   982     418.9 
  49        49   981     416.9 
  50        50   981     448.2 
  51        51   980     403.4 
  52        52   983     420.8 
  53        53   981     429.2 
  54        54   981     448.5 
  55        55   981     380.9 
  56        56   982     425.7 
  57        57   982     424.0 
  58        58   981     439.7 
  59        59   981     421.0 
  60        60   980     427.6 
  61        61   983     402.5 
  62        62   981     417.3 
  63        63   981     442.7 
  64        64   981     411.5 
  65        65   982     431.4 
  66        66   982     425.7 
  67        67   981     443.4 
  68        68   981     457.7 
  69        69   981     423.7 
  70        70   983     456.8 
  71        71   980     485.7 
  72        72   981     455.0 
  73        73   981     456.0 
  74        74   982     462.7 
  75        75   981     428.8 
  76        76   980     487.4 
  77        77   980     475.9 
  78        78   982     491.2 
  79        79   982     436.2 
  80        80   980     497.6 
  81        81   981     514.4 
  82        82   980     508.5 
  83        83   982     481.0 
  84        84   980     484.0 
  85        85   980     532.0 
  86        86   980     480.6 
  87        87   982     501.4 
  88        88   981     491.3 
  89        89   980     519.4 
  90        90   981     519.2 
  91        91   981     495.1 
  92        92   982     495.6 
  93        93   980     521.4 
  94        94   980     520.4 
  95        95   980     488.8 
  96        96   982     498.6 
  97        97   981     516.5 
  98        98   980     515.0 
  99        99   980     518.7 
 100       100   980     479.9 
 101       101   981     482.5 
 102       102   980     467.7 
 103       103   980     491.2 
 104       104   980     558.2 
 105       105   982     496.9 
 106       106   980     483.3 
 107       107   980     485.0 
 108       108   980     471.4 
 109       109   981     496.8 
 110       110   980     453.7 
 111       111   980     467.7 
 112       112   980     490.8 
 113       113   980     457.1 
 114       114   981     456.0 
 115       115   980     461.2 
 116       116   980     493.2 
 117       117   980     483.3 
 118       118   980     469.4 
 119       119   980     472.4 
 120       120   979     513.8 
 121       121   980     513.9 
 122       122   980     466.0 
 123       123   981     482.2 
 124       124   979     461.4 
 125       125   980     475.5 
 126       126   980     448.0 
 127       127   981     456.7 
 128       128   980     454.4 
 129       129   979     493.4 
 130       130   979     456.2 
 131       131   980     488.8 
 132       132   980     429.3 
 133       133   979     462.4 
 134       134   979     480.4 
 135       135   979     490.6 
 136       136   980     465.3 
 137       137   979     470.5 
 138       138   979     494.4 
 139       139   979     496.1 
 140       140   980     476.5 
 141       141   980     464.6 
 142       142   978     455.0 
 143       143   980     445.2 
 144       144   979     433.1 
 145       145   980     444.2 
 146       146   978     474.1 
 147       147   979     493.0 
 148       148   979     459.3 
 149       149   979     464.4 
 150       150   979     464.4 
 151       210  1000     529.7 
 152       270   997     445.3 
 153       330  1000     495.3 
 154       390   996     439.8 
 155       450   996     502.3 
 156       510   996     420.7 
 157       570   994     537.9 
 158       630   998     277.2 
 159       810   983     412.0 
 160       990   980     319.0 
 161      1170   985     290.4 
 162      1350   986     388.4 
 163      1530   981     291.2 
 164      2070   980     296.9 
 165      2691   973     311.4 
 166      3405   978     276.4 
 167      4226   978     400.1 
 168      5170   976     284.5 
 169      6256   975     360.0 
 170      7505   974     372.0 
 171      8941   977     333.0 
 172     10592   975     281.0 
 173     12491   973     345.7 
 174     14675   979     383.0 
 175     17187   975     368.5 
 176     20076   974     322.4 
 177     23398   977     252.8 
 178     27218   979     289.8 
 179     31611   980     336.7 
 180     36663   980     370.4 
 181     42473   977     307.4 
 182     49155   978     376.3 
 183     56839   980     215.3 
 184     65676   977     319.7 
 185     75839   981     319.7 
   1         1   156     420.9 
   2         2   817     573.6 
   3         3   953     536.2 
   4         4   969     556.6 
   5         5   972     564.5 
   6         6   973     580.0 
   7         7   973     588.6 
   8         8   977     574.9 
   9         9   974     609.2 
  10        10   975     597.6 
  11        11   976     654.4 
  12        12   977     609.3 
  13        13   977     682.0 
  14        14   977     641.1 
  15        15   977     669.4 
  16        16   978     640.4 
  17        17   980     642.9 
  18        18   977     634.3 
  19        19   978     650.3 
  20        20   979     590.7 
  21        21   980     599.0 
  22        22   979     597.2 
  23        23   979     591.4 
  24        24   979     621.7 
  25        25   980     581.3 
  26        26   980     552.4 
  27        27   978     587.6 
  28        28   980     586.1 
  29        29   980     602.4 
  30        30   980     578.2 
  31        31   980     570.1 
  32        32   980     555.8 
  33        33   980     596.9 
  34        34   981     583.4 
  35        35   981     602.4 
  36        36   980     570.7 
  37        37   981     610.9 
  38        38   980     583.7 
  39        39   981     566.8 
  40        40   980     608.5 
  41        41   981     590.9 
  42        42   980     618.4 
  43        43   982     616.4 
  44        44   981     570.8 
  45        45   980     600.3 
  46        46   981     638.5 
  47        47   982     610.3 
  48        48   982     583.8 
  49        49   981     595.3 
  50        50   981     647.3 
  51        51   980     628.9 
  52        52   983     645.6 
  53        53   981     630.6 
  54        54   981     657.8 
  55        55   981     649.0 
  56        56   982     617.1 
  57        57   982     630.0 
  58        58   981     659.9 
  59        59   981     675.8 
  60        60   980     649.3 
  61        61   983     628.0 
  62        62   981     654.1 
  63        63   981     649.7 
  64        64   981     653.1 
  65        65   982     670.7 
  66        66   982     663.6 
  67        67   981     662.2 
  68        68   981     648.3 
  69        69   981     671.4 
  70        70   983     645.6 
  71        71   980     667.7 
  72        72   981     681.3 
  73        73   981     669.7 
  74        74   982     661.9 
  75        75   981     680.9 
  76        76   980     665.3 
  77        77   980     707.1 
  78        78   982     670.1 
  79        79   982     673.5 
  80        80   980     641.8 
  81        81   981     675.2 
  82        82   980     710.2 
  83        83   982     635.1 
  84        84   980     688.8 
  85        85   980     658.5 
  86        86   980     683.0 
  87        87   982     690.4 
  88        88   981     683.3 
  89        89   980     679.6 
  90        90   981     665.3 
  91        91   981     670.1 
  92        92   982     652.1 
  93        93   980     662.9 
  94        94   980     661.6 
  95        95   980     693.9 
  96        96   982     664.0 
  97        97   981     619.1 
  98        98   980     685.0 
  99        99   980     667.0 
 100       100   980     691.8 
 101       101   981     612.0 
 102       102   980     638.4 
 103       103   980     669.0 
 104       104   980     671.8 
 105       105   982     655.1 
 106       106   980     657.5 
 107       107   980     642.5 
 108       108   980     661.6 
 109       109   981     653.4 
 110       110   980     632.0 
 111       111   980     637.4 
 112       112   980     654.1 
 113       113   980     674.8 
 114       114   981     627.6 
 115       115   980     612.9 
 116       116   980     645.2 
 117       117   980     648.3 
 118       118   980     638.1 
 119       119   980     615.0 
 120       120   979     622.4 
 121       121   980     622.4 
 122       122   980     657.5 
 123       123   981     614.7 
 124       124   979     637.0 
 125       125   980     618.7 
 126       126   980     623.5 
 127       127   981     638.5 
 128       128   980     604.8 
 129       129   979     625.5 
 130       130   979     622.4 
 131       131   980     639.1 
 132       132   980     643.5 
 133       133   979     636.7 
 134       134   979     622.7 
 135       135   979     644.2 
 136       136   980     641.8 
 137       137   979     580.9 
 138       138   979     620.7 
 139       139   979     607.4 
 140       140   980     630.3 
 141       141   980     608.8 
 142       142   978     629.9 
 143       143   980     617.3 
 144       144   979     631.3 
 145       145   980     621.1 
 146       146   978     590.0 
 147       147   979     622.4 
 148       148   979     620.4 
 149       149   979     614.6 
 150       150   979     614.6 
 151       210  1000     692.0 
 152       270   997     609.5 
 153       330  1000     646.3 
 154       390   996     567.9 
 155       450   996     711.2 
 156       510   996     520.7 
 157       570   994     728.4 
 158       630   998     533.1 
 159       810   983     713.5 
 160       990   980     579.3 
 161      1170   985     614.6 
 162      1350   986     648.4 
 163      1530   981     538.2 
 164      2070   980     690.8 
 165      2691   973     678.7 
 166      3405   978     622.0 
 167      4226   978     503.1 
 168      5170   976     632.2 
 169      6256   975     552.5 
 170      7505   974     503.8 
 171      8941   977     594.7 
 172     10592   975     508.4 
 173     12491   973     601.6 
 174     14675   979     545.1 
 175     17187   975     495.7 
 176     20076   974     459.3 
 177     23398   977     539.1 
 178     27218   979     500.9 
 179     31611   980     447.3 
 180     36663   980     502.4 
 181     42473   977     436.7 
 182     49155   978     412.7 
 183     56839   980     370.4 
 184     65676   977     415.2 
 185     75839   981     415.2 
