PC/104 FIRe Fluorometer 2.0.0
 4/ 8/2025     37155
LED Color:           blue
Gain:               2000
Sample Delay (msec):    10
Number Samples:   3
STF (usec):      150
STRP (#samples):       35
STRI (usec):       60
MTF (ms):        0
MTF (#samples):     0
MTRP (#samples):        0
MTRI (usec):      100
PQLen:     4
Ambient Light Source Power: Off
PAR (uMol/m^2/s):196.98
Comment:
Depth(m):  -0.6
Temperature(C):  72.8
Battery(V):  14.38

         Time    EX   Fl-Yield 
DATA--------------------------
   0         0     0       0.0 
   1         1   156     431.6 
   2         2   817     330.9 
   3         3   953     363.4 
   4         4   969     346.4 
   5         5   972     362.1 
   6         6   973     375.5 
   7         7   973     414.9 
   8         8   977     375.6 
   9         9   974     414.1 
  10        10   975     448.2 
  11        11   976     436.1 
  12        12   977     437.1 
  13        13   977     436.7 
  14        14   977     463.0 
  15        15   977     432.6 
  16        16   978     499.0 
  17        17   980     461.9 
  18        18   977     439.8 
  19        19   978     490.8 
  20        20   979     493.7 
  21        21   980     496.9 
  22        22   979     454.9 
  23        23   979     466.1 
  24        24   979     507.7 
  25        25   980     471.4 
  26        26   980     488.1 
  27        27   978     520.1 
  28        28   980     480.3 
  29        29   980     451.0 
  30        30   980     522.1 
  31        31   980     460.5 
  32        32   980     475.2 
  33        33   980     439.1 
  34        34   981     517.8 
  35        35   981     489.0 
  36        36   980     485.0 
  37        37   981     532.1 
  38        38   980     473.8 
  39        39   981     528.0 
  40        40   980     495.9 
  41        41   981     480.5 
  42        42   980     497.3 
  43        43   982     473.9 
  44        44   981     527.0 
  45        45   980     484.7 
  46        46   981     477.7 
  47        47   982     524.8 
  48        48   982     493.2 
  49        49   981     471.3 
  50        50   981     514.8 
  51        51   980     510.9 
  52        52   983     511.0 
  53        53   981     470.9 
  54        54   981     480.1 
  55        55   981     476.4 
  56        56   982     506.8 
  57        57   982     466.1 
  58        58   981     496.4 
  59        59   981     492.7 
  60        60   980     502.4 
  61        61   983     503.2 
  62        62   981     540.6 
  63        63   981     490.0 
  64        64   981     542.6 
  65        65   982     487.8 
  66        66   982     525.5 
  67        67   981     515.5 
  68        68   981     602.4 
  69        69   981     482.2 
  70        70   983     526.3 
  71        71   980     489.8 
  72        72   981     512.7 
  73        73   981     507.6 
  74        74   982     506.4 
  75        75   981     485.9 
  76        76   980     506.5 
  77        77   980     515.6 
  78        78   982     568.2 
  79        79   982     526.5 
  80        80   980     529.3 
  81        81   981     472.3 
  82        82   980     490.8 
  83        83   982     502.0 
  84        84   980     508.2 
  85        85   980     466.0 
  86        86   980     481.6 
  87        87   982     487.1 
  88        88   981     468.6 
  89        89   980     486.7 
  90        90   981     511.4 
  91        91   981     467.6 
  92        92   982     453.8 
  93        93   980     482.7 
  94        94   980     488.4 
  95        95   980     534.7 
  96        96   982     503.4 
  97        97   981     514.4 
  98        98   980     468.4 
  99        99   980     525.9 
 100       100   980     502.4 
 101       101   981     488.3 
 102       102   980     477.2 
 103       103   980     521.1 
 104       104   980     466.3 
 105       105   982     545.5 
 106       106   980     487.4 
 107       107   980     507.8 
 108       108   980     529.6 
 109       109   981     524.6 
 110       110   980     501.0 
 111       111   980     509.2 
 112       112   980     504.8 
 113       113   980     500.3 
 114       114   981     542.6 
 115       115   980     504.1 
 116       116   980     513.6 
 117       117   980     489.5 
 118       118   980     515.6 
 119       119   980     536.1 
 120       120   979     520.3 
 121       121   980     475.5 
 122       122   980     538.1 
 123       123   981     507.6 
 124       124   979     522.3 
 125       125   980     510.5 
 126       126   980     476.2 
 127       127   981     525.0 
 128       128   980     497.6 
 129       129   979     550.6 
 130       130   979     558.4 
 131       131   980     551.0 
 132       132   980     553.7 
 133       133   979     551.9 
 134       134   979     517.5 
 135       135   979     560.1 
 136       136   980     527.9 
 137       137   979     514.5 
 138       138   979     517.5 
 139       139   979     546.8 
 140       140   980     547.6 
 141       141   980     548.6 
 142       142   978     536.5 
 143       143   980     547.6 
 144       144   979     569.3 
 145       145   980     571.4 
 146       146   978     517.4 
 147       147   979     555.0 
 148       148   979     543.8 
 149       149   979     544.1 
 150       150   979     544.1 
 151       210  1000     476.3 
 152       270   997     482.8 
 153       330  1000     526.3 
 154       390   996     433.4 
 155       450   996     499.0 
 156       510   996     569.9 
 157       570   994     504.0 
 158       630   998     512.4 
 159       810   983     471.0 
 160       990   980     512.6 
 161      1170   985     471.7 
 162      1350   986     510.5 
 163      1530   981     526.7 
 164      2070   980     439.8 
 165      2691   973     399.1 
 166      3405   978     453.0 
 167      4226   978     400.8 
 168      5170   976     370.6 
 169      6256   975     432.8 
 170      7505   974     383.3 
 171      8941   977     395.4 
 172     10592   975     363.1 
 173     12491   973     487.5 
 174     14675   979     450.8 
 175     17187   975     417.4 
 176     20076   974     379.2 
 177     23398   977     333.7 
 178     27218   979     383.7 
 179     31611   980     356.5 
 180     36663   980     396.9 
 181     42473   977     345.3 
 182     49155   978     428.8 
 183     56839   980     385.0 
 184     65676   977     358.9 
 185     75839   981     358.9 
   1         1   156     322.6 
   2         2   817     505.9 
   3         3   953     447.7 
   4         4   969     501.9 
   5         5   972     478.4 
   6         6   973     539.6 
   7         7   973     484.1 
   8         8   977     442.2 
   9         9   974     469.2 
  10        10   975     554.5 
  11        11   976     484.3 
  12        12   977     471.9 
  13        13   977     500.5 
  14        14   977     567.7 
  15        15   977     524.1 
  16        16   978     513.6 
  17        17   980     508.5 
  18        18   977     508.7 
  19        19   978     548.4 
  20        20   979     503.2 
  21        21   980     459.5 
  22        22   979     425.3 
  23        23   979     532.9 
  24        24   979     482.1 
  25        25   980     435.4 
  26        26   980     431.6 
  27        27   978     465.9 
  28        28   980     494.9 
  29        29   980     446.3 
  30        30   980     412.2 
  31        31   980     393.5 
  32        32   980     468.4 
  33        33   980     470.4 
  34        34   981     438.3 
  35        35   981     450.2 
  36        36   980     493.2 
  37        37   981     496.8 
  38        38   980     442.5 
  39        39   981     416.9 
  40        40   980     487.8 
  41        41   981     512.4 
  42        42   980     466.0 
  43        43   982     429.4 
  44        44   981     482.2 
  45        45   980     522.1 
  46        46   981     482.2 
  47        47   982     429.1 
  48        48   982     483.0 
  49        49   981     479.1 
  50        50   981     466.5 
  51        51   980     491.5 
  52        52   983     489.3 
  53        53   981     484.9 
  54        54   981     497.5 
  55        55   981     444.1 
  56        56   982     491.5 
  57        57   982     470.5 
  58        58   981     519.2 
  59        59   981     539.6 
  60        60   980     465.6 
  61        61   983     436.8 
  62        62   981     507.3 
  63        63   981     511.7 
  64        64   981     469.6 
  65        65   982     492.2 
  66        66   982     436.2 
  67        67   981     501.9 
  68        68   981     481.1 
  69        69   981     491.7 
  70        70   983     480.2 
  71        71   980     526.9 
  72        72   981     479.1 
  73        73   981     486.9 
  74        74   982     438.2 
  75        75   981     494.4 
  76        76   980     547.3 
  77        77   980     492.2 
  78        78   982     460.3 
  79        79   982     483.0 
  80        80   980     555.1 
  81        81   981     514.4 
  82        82   980     485.0 
  83        83   982     506.8 
  84        84   980     491.5 
  85        85   980     554.8 
  86        86   980     492.2 
  87        87   982     494.6 
  88        88   981     523.6 
  89        89   980     551.7 
  90        90   981     489.6 
  91        91   981     487.3 
  92        92   982     488.1 
  93        93   980     528.9 
  94        94   980     573.5 
  95        95   980     469.0 
  96        96   982     513.9 
  97        97   981     503.9 
  98        98   980     569.0 
  99        99   980     508.8 
 100       100   980     567.7 
 101       101   981     518.5 
 102       102   980     599.7 
 103       103   980     499.0 
 104       104   980     560.9 
 105       105   982     541.1 
 106       106   980     556.1 
 107       107   980     583.3 
 108       108   980     528.6 
 109       109   981     547.4 
 110       110   980     610.9 
 111       111   980     654.1 
 112       112   980     543.5 
 113       113   980     514.3 
 114       114   981     532.8 
 115       115   980     606.8 
 116       116   980     577.9 
 117       117   980     528.2 
 118       118   980     515.0 
 119       119   980     577.9 
 120       120   979     566.6 
 121       121   980     562.2 
 122       122   980     540.1 
 123       123   981     567.8 
 124       124   979     614.6 
 125       125   980     563.6 
 126       126   980     520.1 
 127       127   981     497.8 
 128       128   980     579.6 
 129       129   979     579.8 
 130       130   979     526.4 
 131       131   980     504.4 
 132       132   980     535.0 
 133       133   979     595.8 
 134       134   979     553.3 
 135       135   979     538.0 
 136       136   980     473.8 
 137       137   979     551.6 
 138       138   979     555.0 
 139       139   979     515.2 
 140       140   980     506.8 
 141       141   980     546.3 
 142       142   978     566.5 
 143       143   980     481.6 
 144       144   979     496.8 
 145       145   980     520.4 
 146       146   978     545.0 
 147       147   979     497.1 
 148       148   979     452.2 
 149       149   979     460.3 
 150       150   979     460.3 
 151       210  1000     519.3 
 152       270   997     514.2 
 153       330  1000     494.7 
 154       390   996     559.6 
 155       450   996     700.8 
 156       510   996     459.5 
 157       570   994     594.6 
 158       630   998     595.2 
 159       810   983     608.3 
 160       990   980     501.0 
 161      1170   985     457.9 
 162      1350   986     471.6 
 163      1530   981     513.4 
 164      2070   980     563.9 
 165      2691   973     627.3 
 166      3405   978     489.4 
 167      4226   978     599.9 
 168      5170   976     513.7 
 169      6256   975     571.3 
 170      7505   974     439.1 
 171      8941   977     412.1 
 172     10592   975     678.3 
 173     12491   973     682.1 
 174     14675   979     414.4 
 175     17187   975     493.3 
 176     20076   974     525.7 
 177     23398   977     591.3 
 178     27218   979     468.8 
 179     31611   980     340.5 
 180     36663   980     352.0 
 181     42473   977     289.0 
 182     49155   978     416.5 
 183     56839   980     357.5 
 184     65676   977     412.1 
 185     75839   981     412.1 
