PC/104 FIRe Fluorometer 2.0.0
 4/ 8/2025     37056
LED Color:           blue
Gain:               1600
Sample Delay (msec):    10
Number Samples:   3
STF (usec):      150
STRP (#samples):       35
STRI (usec):       60
MTF (ms):        0
MTF (#samples):     0
MTRP (#samples):        0
MTRI (usec):      100
PQLen:     4
Ambient Light Source Power: Off
PAR (uMol/m^2/s):618.41
Comment:
Depth(m):  -0.6
Temperature(C):  72.3
Battery(V):  14.39

         Time    EX   Fl-Yield 
DATA--------------------------
   0         0     0       0.0 
   1         1   156     141.0 
   2         2   817     270.5 
   3         3   953     293.8 
   4         4   969     272.8 
   5         5   972     270.9 
   6         6   973     305.6 
   7         7   973     315.5 
   8         8   977     295.5 
   9         9   974     293.0 
  10        10   975     296.4 
  11        11   976     322.1 
  12        12   977     325.5 
  13        13   977     309.5 
  14        14   977     318.7 
  15        15   977     349.4 
  16        16   978     334.4 
  17        17   980     327.6 
  18        18   977     314.6 
  19        19   978     360.3 
  20        20   979     358.9 
  21        21   980     357.1 
  22        22   979     339.1 
  23        23   979     369.8 
  24        24   979     389.5 
  25        25   980     364.3 
  26        26   980     369.0 
  27        27   978     379.0 
  28        28   980     378.6 
  29        29   980     393.5 
  30        30   980     390.1 
  31        31   980     377.2 
  32        32   980     394.2 
  33        33   980     397.6 
  34        34   981     403.3 
  35        35   981     398.2 
  36        36   980     408.8 
  37        37   981     417.3 
  38        38   980     422.8 
  39        39   981     422.0 
  40        40   980     401.4 
  41        41   981     408.1 
  42        42   980     424.5 
  43        43   982     414.1 
  44        44   981     426.1 
  45        45   980     420.4 
  46        46   981     433.2 
  47        47   982     435.5 
  48        48   982     438.9 
  49        49   981     416.9 
  50        50   981     443.1 
  51        51   980     446.6 
  52        52   983     438.5 
  53        53   981     426.4 
  54        54   981     420.0 
  55        55   981     435.9 
  56        56   982     453.2 
  57        57   982     431.8 
  58        58   981     429.8 
  59        59   981     450.9 
  60        60   980     448.0 
  61        61   983     436.8 
  62        62   981     434.3 
  63        63   981     447.8 
  64        64   981     440.0 
  65        65   982     428.7 
  66        66   982     425.0 
  67        67   981     434.6 
  68        68   981     448.9 
  69        69   981     447.2 
  70        70   983     408.6 
  71        71   980     426.5 
  72        72   981     457.7 
  73        73   981     450.2 
  74        74   982     444.0 
  75        75   981     436.6 
  76        76   980     436.1 
  77        77   980     442.9 
  78        78   982     431.4 
  79        79   982     426.3 
  80        80   980     430.6 
  81        81   981     450.2 
  82        82   980     416.3 
  83        83   982     432.8 
  84        84   980     436.4 
  85        85   980     441.8 
  86        86   980     437.1 
  87        87   982     445.0 
  88        88   981     424.1 
  89        89   980     439.1 
  90        90   981     423.4 
  91        91   981     421.7 
  92        92   982     417.9 
  93        93   980     419.7 
  94        94   980     439.8 
  95        95   980     431.0 
  96        96   982     438.9 
  97        97   981     425.4 
  98        98   980     435.4 
  99        99   980     460.5 
 100       100   980     433.3 
 101       101   981     421.0 
 102       102   980     451.0 
 103       103   980     446.6 
 104       104   980     436.1 
 105       105   982     394.4 
 106       106   980     427.9 
 107       107   980     432.3 
 108       108   980     421.4 
 109       109   981     423.7 
 110       110   980     426.9 
 111       111   980     410.5 
 112       112   980     421.8 
 113       113   980     432.0 
 114       114   981     411.5 
 115       115   980     422.8 
 116       116   980     421.4 
 117       117   980     428.2 
 118       118   980     411.2 
 119       119   980     416.7 
 120       120   979     416.8 
 121       121   980     427.2 
 122       122   980     410.9 
 123       123   981     406.0 
 124       124   979     420.8 
 125       125   980     411.6 
 126       126   980     418.7 
 127       127   981     406.0 
 128       128   980     408.2 
 129       129   979     427.0 
 130       130   979     425.3 
 131       131   980     422.4 
 132       132   980     414.3 
 133       133   979     419.5 
 134       134   979     414.0 
 135       135   979     413.0 
 136       136   980     398.3 
 137       137   979     430.0 
 138       138   979     420.2 
 139       139   979     421.9 
 140       140   980     402.7 
 141       141   980     433.0 
 142       142   978     410.7 
 143       143   980     421.4 
 144       144   979     387.1 
 145       145   980     398.0 
 146       146   978     409.7 
 147       147   979     426.6 
 148       148   979     443.0 
 149       149   979     440.2 
 150       150   979     440.2 
 151       210  1000     478.0 
 152       270   997     421.3 
 153       330  1000     391.0 
 154       390   996     421.4 
 155       450   996     366.8 
 156       510   996     380.5 
 157       570   994     380.3 
 158       630   998     386.1 
 159       810   983     407.6 
 160       990   980     343.2 
 161      1170   985     350.3 
 162      1350   986     309.7 
 163      1530   981     335.0 
 164      2070   980     362.6 
 165      2691   973     354.6 
 166      3405   978     271.0 
 167      4226   978     361.3 
 168      5170   976     268.8 
 169      6256   975     307.0 
 170      7505   974     355.2 
 171      8941   977     265.4 
 172     10592   975     286.5 
 173     12491   973     294.6 
 174     14675   979     294.2 
 175     17187   975     266.0 
 176     20076   974     293.6 
 177     23398   977     280.1 
 178     27218   979     280.2 
 179     31611   980     296.3 
 180     36663   980     293.9 
 181     42473   977     334.0 
 182     49155   978     278.5 
 183     56839   980     305.8 
 184     65676   977     321.4 
 185     75839   981     321.4 
   1         1   156     369.7 
   2         2   817     455.7 
   3         3   953     450.5 
   4         4   969     459.9 
   5         5   972     448.6 
   6         6   973     451.5 
   7         7   973     443.3 
   8         8   977     474.6 
   9         9   974     460.6 
  10        10   975     477.9 
  11        11   976     487.0 
  12        12   977     497.4 
  13        13   977     505.6 
  14        14   977     484.5 
  15        15   977     492.7 
  16        16   978     482.3 
  17        17   980     512.6 
  18        18   977     481.4 
  19        19   978     475.1 
  20        20   979     473.3 
  21        21   980     470.7 
  22        22   979     471.2 
  23        23   979     467.5 
  24        24   979     459.3 
  25        25   980     476.5 
  26        26   980     467.3 
  27        27   978     461.8 
  28        28   980     471.4 
  29        29   980     468.0 
  30        30   980     467.7 
  31        31   980     457.1 
  32        32   980     482.0 
  33        33   980     463.3 
  34        34   981     478.1 
  35        35   981     470.9 
  36        36   980     446.6 
  37        37   981     469.6 
  38        38   980     467.3 
  39        39   981     469.9 
  40        40   980     473.1 
  41        41   981     476.0 
  42        42   980     481.6 
  43        43   982     467.1 
  44        44   981     472.6 
  45        45   980     473.8 
  46        46   981     490.3 
  47        47   982     470.5 
  48        48   982     494.2 
  49        49   981     466.2 
  50        50   981     467.6 
  51        51   980     486.1 
  52        52   983     485.2 
  53        53   981     502.2 
  54        54   981     501.9 
  55        55   981     488.3 
  56        56   982     510.2 
  57        57   982     494.2 
  58        58   981     500.2 
  59        59   981     495.1 
  60        60   980     498.6 
  61        61   983     501.5 
  62        62   981     479.8 
  63        63   981     502.9 
  64        64   981     514.4 
  65        65   982     493.2 
  66        66   982     488.1 
  67        67   981     490.3 
  68        68   981     517.8 
  69        69   981     496.4 
  70        70   983     513.4 
  71        71   980     497.6 
  72        72   981     492.4 
  73        73   981     492.4 
  74        74   982     503.4 
  75        75   981     510.0 
  76        76   980     488.8 
  77        77   980     499.3 
  78        78   982     504.1 
  79        79   982     506.4 
  80        80   980     486.1 
  81        81   981     495.4 
  82        82   980     508.2 
  83        83   982     488.8 
  84        84   980     491.8 
  85        85   980     488.8 
  86        86   980     496.6 
  87        87   982     497.6 
  88        88   981     484.2 
  89        89   980     490.1 
  90        90   981     483.5 
  91        91   981     517.8 
  92        92   982     490.8 
  93        93   980     511.9 
  94        94   980     498.0 
  95        95   980     487.4 
  96        96   982     483.4 
  97        97   981     492.0 
  98        98   980     491.8 
  99        99   980     490.1 
 100       100   980     518.0 
 101       101   981     486.2 
 102       102   980     501.4 
 103       103   980     491.8 
 104       104   980     510.2 
 105       105   982     511.2 
 106       106   980     493.2 
 107       107   980     494.9 
 108       108   980     501.4 
 109       109   981     502.9 
 110       110   980     492.5 
 111       111   980     498.3 
 112       112   980     507.8 
 113       113   980     504.1 
 114       114   981     505.9 
 115       115   980     485.4 
 116       116   980     507.8 
 117       117   980     507.8 
 118       118   980     516.0 
 119       119   980     486.4 
 120       120   979     491.7 
 121       121   980     489.8 
 122       122   980     522.4 
 123       123   981     482.5 
 124       124   979     497.1 
 125       125   980     491.2 
 126       126   980     512.9 
 127       127   981     503.2 
 128       128   980     478.2 
 129       129   979     486.2 
 130       130   979     501.5 
 131       131   980     494.2 
 132       132   980     482.3 
 133       133   979     497.4 
 134       134   979     493.0 
 135       135   979     501.5 
 136       136   980     472.8 
 137       137   979     479.1 
 138       138   979     475.0 
 139       139   979     495.7 
 140       140   980     502.0 
 141       141   980     489.1 
 142       142   978     473.1 
 143       143   980     483.0 
 144       144   979     511.7 
 145       145   980     496.9 
 146       146   978     490.5 
 147       147   979     492.0 
 148       148   979     486.9 
 149       149   979     494.4 
 150       150   979     494.4 
 151       210  1000     511.0 
 152       270   997     497.2 
 153       330  1000     517.7 
 154       390   996     463.2 
 155       450   996     481.9 
 156       510   996     514.7 
 157       570   994     512.4 
 158       630   998     480.3 
 159       810   983     492.4 
 160       990   980     475.5 
 161      1170   985     520.8 
 162      1350   986     503.7 
 163      1530   981     458.0 
 164      2070   980     504.1 
 165      2691   973     469.3 
 166      3405   978     437.3 
 167      4226   978     492.2 
 168      5170   976     435.5 
 169      6256   975     492.0 
 170      7505   974     452.4 
 171      8941   977     408.1 
 172     10592   975     386.0 
 173     12491   973     397.4 
 174     14675   979     392.2 
 175     17187   975     400.7 
 176     20076   974     411.7 
 177     23398   977     410.1 
 178     27218   979     438.5 
 179     31611   980     396.3 
 180     36663   980     357.5 
 181     42473   977     322.1 
 182     49155   978     298.2 
 183     56839   980     354.1 
 184     65676   977     295.1 
 185     75839   981     295.1 
