PC/104 FIRe Fluorometer 2.0.0
 4/ 8/2025     29414
LED Color:           blue
Gain:               1600
Sample Delay (msec):    10
Number Samples:   3
STF (usec):      150
STRP (#samples):       35
STRI (usec):       60
MTF (ms):        0
MTF (#samples):     0
MTRP (#samples):        0
MTRI (usec):      100
PQLen:     4
Ambient Light Source Power: Off
PAR (uMol/m^2/s):661.06
Comment:
Depth(m):   2.9
Temperature(C):  51.5
Battery(V):  16.00

         Time    EX   Fl-Yield 
DATA--------------------------
   0         0     0       0.0 
   1         1   156     143.2 
   2         2   817     219.1 
   3         3   953     265.8 
   4         4   969     310.6 
   5         5   972     289.4 
   6         6   973     272.7 
   7         7   973     291.5 
   8         8   977     288.6 
   9         9   974     318.6 
  10        10   975     298.5 
  11        11   976     298.2 
  12        12   977     331.3 
  13        13   977     333.7 
  14        14   977     320.4 
  15        15   977     340.8 
  16        16   978     336.7 
  17        17   980     363.6 
  18        18   977     368.5 
  19        19   978     381.7 
  20        20   979     345.9 
  21        21   980     343.2 
  22        22   979     407.2 
  23        23   979     389.2 
  24        24   979     374.2 
  25        25   980     383.0 
  26        26   980     400.7 
  27        27   978     428.4 
  28        28   980     376.2 
  29        29   980     387.4 
  30        30   980     408.5 
  31        31   980     413.9 
  32        32   980     435.4 
  33        33   980     415.0 
  34        34   981     384.0 
  35        35   981     433.6 
  36        36   980     449.0 
  37        37   981     439.0 
  38        38   980     406.1 
  39        39   981     442.4 
  40        40   980     451.0 
  41        41   981     456.0 
  42        42   980     445.6 
  43        43   982     428.0 
  44        44   981     454.6 
  45        45   980     467.0 
  46        46   981     439.3 
  47        47   982     465.4 
  48        48   982     450.4 
  49        49   981     480.1 
  50        50   981     458.7 
  51        51   980     433.0 
  52        52   983     445.9 
  53        53   981     461.4 
  54        54   981     481.8 
  55        55   981     452.6 
  56        56   982     436.9 
  57        57   982     477.6 
  58        58   981     473.7 
  59        59   981     465.2 
  60        60   980     452.4 
  61        61   983     438.1 
  62        62   981     464.5 
  63        63   981     459.1 
  64        64   981     462.8 
  65        65   982     434.5 
  66        66   982     442.6 
  67        67   981     455.7 
  68        68   981     456.7 
  69        69   981     441.0 
  70        70   983     455.7 
  71        71   980     479.9 
  72        72   981     465.9 
  73        73   981     447.5 
  74        74   982     463.3 
  75        75   981     443.8 
  76        76   980     481.6 
  77        77   980     458.8 
  78        78   982     445.7 
  79        79   982     442.6 
  80        80   980     474.1 
  81        81   981     460.1 
  82        82   980     440.5 
  83        83   982     465.4 
  84        84   980     466.3 
  85        85   980     485.4 
  86        86   980     467.7 
  87        87   982     446.4 
  88        88   981     451.6 
  89        89   980     494.9 
  90        90   981     471.6 
  91        91   981     474.0 
  92        92   982     449.4 
  93        93   980     466.3 
  94        94   980     479.6 
  95        95   980     463.6 
  96        96   982     450.1 
  97        97   981     445.5 
  98        98   980     486.4 
  99        99   980     462.6 
 100       100   980     451.0 
 101       101   981     441.4 
 102       102   980     462.6 
 103       103   980     461.2 
 104       104   980     442.5 
 105       105   982     447.7 
 106       106   980     470.1 
 107       107   980     476.5 
 108       108   980     467.3 
 109       109   981     458.7 
 110       110   980     432.7 
 111       111   980     487.4 
 112       112   980     486.7 
 113       113   980     458.8 
 114       114   981     429.5 
 115       115   980     455.1 
 116       116   980     475.2 
 117       117   980     458.8 
 118       118   980     420.4 
 119       119   980     442.9 
 120       120   979     455.6 
 121       121   980     446.6 
 122       122   980     428.9 
 123       123   981     455.7 
 124       124   979     472.9 
 125       125   980     479.6 
 126       126   980     446.9 
 127       127   981     463.1 
 128       128   980     453.7 
 129       129   979     450.1 
 130       130   979     464.1 
 131       131   980     440.5 
 132       132   980     465.3 
 133       133   979     454.9 
 134       134   979     471.2 
 135       135   979     479.7 
 136       136   980     446.3 
 137       137   979     459.0 
 138       138   979     484.5 
 139       139   979     471.6 
 140       140   980     451.7 
 141       141   980     429.9 
 142       142   978     474.4 
 143       143   980     460.2 
 144       144   979     463.7 
 145       145   980     462.2 
 146       146   978     450.6 
 147       147   979     461.4 
 148       148   979     459.7 
 149       149   979     471.6 
 150       150   979     471.6 
 151       210  1000     437.3 
 152       270   997     482.8 
 153       330  1000     372.7 
 154       390   996     455.5 
 155       450   996     376.5 
 156       510   996     392.6 
 157       570   994     371.6 
 158       630   998     319.3 
 159       810   983     373.3 
 160       990   980     309.2 
 161      1170   985     345.2 
 162      1350   986     345.2 
 163      1530   981     277.3 
 164      2070   980     231.3 
 165      2691   973     326.8 
 166      3405   978     313.9 
 167      4226   978     304.7 
 168      5170   976     248.6 
 169      6256   975     302.6 
 170      7505   974     293.6 
 171      8941   977     340.2 
 172     10592   975     291.3 
 173     12491   973     346.0 
 174     14675   979     297.9 
 175     17187   975     323.1 
 176     20076   974     312.1 
 177     23398   977     269.2 
 178     27218   979     268.0 
 179     31611   980     311.2 
 180     36663   980     289.8 
 181     42473   977     268.9 
 182     49155   978     306.7 
 183     56839   980     302.4 
 184     65676   977     224.8 
 185     75839   981     224.8 
   1         1   156     341.9 
   2         2   817     573.6 
   3         3   953     593.6 
   4         4   969     572.8 
   5         5   972     567.2 
   6         6   973     576.9 
   7         7   973     575.9 
   8         8   977     600.5 
   9         9   974     581.8 
  10        10   975     605.1 
  11        11   976     593.2 
  12        12   977     625.4 
  13        13   977     642.8 
  14        14   977     632.2 
  15        15   977     614.8 
  16        16   978     651.7 
  17        17   980     638.4 
  18        18   977     608.7 
  19        19   978     605.7 
  20        20   979     613.6 
  21        21   980     619.7 
  22        22   979     605.4 
  23        23   979     551.2 
  24        24   979     577.5 
  25        25   980     622.1 
  26        26   980     608.5 
  27        27   978     570.6 
  28        28   980     576.5 
  29        29   980     583.3 
  30        30   980     606.8 
  31        31   980     617.7 
  32        32   980     584.7 
  33        33   980     579.9 
  34        34   981     630.0 
  35        35   981     607.9 
  36        36   980     601.4 
  37        37   981     592.3 
  38        38   980     618.7 
  39        39   981     643.2 
  40        40   980     621.4 
  41        41   981     610.3 
  42        42   980     603.7 
  43        43   982     637.5 
  44        44   981     634.0 
  45        45   980     625.9 
  46        46   981     623.2 
  47        47   982     639.2 
  48        48   982     651.4 
  49        49   981     632.3 
  50        50   981     604.1 
  51        51   980     650.0 
  52        52   983     639.5 
  53        53   981     635.1 
  54        54   981     626.6 
  55        55   981     625.6 
  56        56   982     636.5 
  57        57   982     642.9 
  58        58   981     623.5 
  59        59   981     621.1 
  60        60   980     637.8 
  61        61   983     667.3 
  62        62   981     638.1 
  63        63   981     625.6 
  64        64   981     615.4 
  65        65   982     659.9 
  66        66   982     654.1 
  67        67   981     618.1 
  68        68   981     620.5 
  69        69   981     626.6 
  70        70   983     662.6 
  71        71   980     643.5 
  72        72   981     615.0 
  73        73   981     620.5 
  74        74   982     643.2 
  75        75   981     647.0 
  76        76   980     602.7 
  77        77   980     636.7 
  78        78   982     632.4 
  79        79   982     648.3 
  80        80   980     628.2 
  81        81   981     620.1 
  82        82   980     631.6 
  83        83   982     665.0 
  84        84   980     655.4 
  85        85   980     632.0 
  86        86   980     618.7 
  87        87   982     636.8 
  88        88   981     651.0 
  89        89   980     641.2 
  90        90   981     613.0 
  91        91   981     603.8 
  92        92   982     644.6 
  93        93   980     655.8 
  94        94   980     614.3 
  95        95   980     627.9 
  96        96   982     637.5 
  97        97   981     652.4 
  98        98   980     619.7 
  99        99   980     637.1 
 100       100   980     620.7 
 101       101   981     653.8 
 102       102   980     618.4 
 103       103   980     622.1 
 104       104   980     604.8 
 105       105   982     636.5 
 106       106   980     641.2 
 107       107   980     624.5 
 108       108   980     615.6 
 109       109   981     633.0 
 110       110   980     639.1 
 111       111   980     640.8 
 112       112   980     614.3 
 113       113   980     627.9 
 114       114   981     650.4 
 115       115   980     641.5 
 116       116   980     600.7 
 117       117   980     602.4 
 118       118   980     619.4 
 119       119   980     671.4 
 120       120   979     617.0 
 121       121   980     588.1 
 122       122   980     612.6 
 123       123   981     617.1 
 124       124   979     643.2 
 125       125   980     607.5 
 126       126   980     594.9 
 127       127   981     611.6 
 128       128   980     638.4 
 129       129   979     607.8 
 130       130   979     598.6 
 131       131   980     602.7 
 132       132   980     623.1 
 133       133   979     634.3 
 134       134   979     603.3 
 135       135   979     621.7 
 136       136   980     624.1 
 137       137   979     635.0 
 138       138   979     620.7 
 139       139   979     612.9 
 140       140   980     624.8 
 141       141   980     629.9 
 142       142   978     637.4 
 143       143   980     601.7 
 144       144   979     610.1 
 145       145   980     624.8 
 146       146   978     644.5 
 147       147   979     620.7 
 148       148   979     611.5 
 149       149   979     592.1 
 150       150   979     592.1 
 151       210  1000     691.7 
 152       270   997     613.2 
 153       330  1000     557.3 
 154       390   996     652.6 
 155       450   996     571.0 
 156       510   996     642.2 
 157       570   994     566.1 
 158       630   998     640.6 
 159       810   983     555.4 
 160       990   980     592.9 
 161      1170   985     633.8 
 162      1350   986     542.6 
 163      1530   981     650.0 
 164      2070   980     620.7 
 165      2691   973     538.2 
 166      3405   978     548.4 
 167      4226   978     584.5 
 168      5170   976     550.2 
 169      6256   975     584.3 
 170      7505   974     507.2 
 171      8941   977     500.9 
 172     10592   975     578.5 
 173     12491   973     550.2 
 174     14675   979     549.5 
 175     17187   975     524.1 
 176     20076   974     512.0 
 177     23398   977     436.4 
 178     27218   979     542.0 
 179     31611   980     437.8 
 180     36663   980     467.7 
 181     42473   977     459.9 
 182     49155   978     336.4 
 183     56839   980     302.7 
 184     65676   977     399.5 
 185     75839   981     399.5 
