PC/104 FIRe Fluorometer 2.0.0
 4/ 8/2025     29489
LED Color:           blue
Gain:               1800
Sample Delay (msec):    10
Number Samples:   3
STF (usec):      150
STRP (#samples):       35
STRI (usec):       60
MTF (ms):        0
MTF (#samples):     0
MTRP (#samples):        0
MTRI (usec):      100
PQLen:     4
Ambient Light Source Power: Off
PAR (uMol/m^2/s):614.50
Comment:
Depth(m):   2.8
Temperature(C):  52.5
Battery(V):  15.98

         Time    EX   Fl-Yield 
DATA--------------------------
   0         0     0       0.0 
   1         1   156      81.2 
   2         2   817     307.2 
   3         3   953     362.0 
   4         4   969     366.0 
   5         5   972     355.3 
   6         6   973     354.9 
   7         7   973     376.8 
   8         8   977     377.3 
   9         9   974     377.8 
  10        10   975     328.5 
  11        11   976     386.3 
  12        12   977     431.3 
  13        13   977     387.9 
  14        14   977     397.1 
  15        15   977     401.9 
  16        16   978     437.6 
  17        17   980     434.0 
  18        18   977     407.7 
  19        19   978     419.6 
  20        20   979     427.6 
  21        21   980     479.6 
  22        22   979     413.0 
  23        23   979     453.2 
  24        24   979     433.4 
  25        25   980     483.0 
  26        26   980     474.8 
  27        27   978     452.3 
  28        28   980     466.7 
  29        29   980     502.7 
  30        30   980     486.4 
  31        31   980     492.9 
  32        32   980     505.4 
  33        33   980     458.8 
  34        34   981     523.3 
  35        35   981     500.2 
  36        36   980     506.8 
  37        37   981     540.3 
  38        38   980     543.5 
  39        39   981     544.7 
  40        40   980     505.4 
  41        41   981     503.2 
  42        42   980     553.1 
  43        43   982     573.3 
  44        44   981     559.6 
  45        45   980     515.6 
  46        46   981     543.0 
  47        47   982     562.1 
  48        48   982     521.4 
  49        49   981     553.5 
  50        50   981     534.5 
  51        51   980     594.2 
  52        52   983     606.3 
  53        53   981     570.5 
  54        54   981     562.7 
  55        55   981     607.9 
  56        56   982     619.1 
  57        57   982     601.8 
  58        58   981     583.8 
  59        59   981     587.5 
  60        60   980     616.3 
  61        61   983     632.1 
  62        62   981     631.7 
  63        63   981     610.9 
  64        64   981     601.4 
  65        65   982     652.7 
  66        66   982     658.9 
  67        67   981     629.3 
  68        68   981     605.2 
  69        69   981     634.7 
  70        70   983     627.7 
  71        71   980     676.9 
  72        72   981     640.2 
  73        73   981     615.0 
  74        74   982     664.0 
  75        75   981     636.8 
  76        76   980     622.1 
  77        77   980     629.3 
  78        78   982     641.9 
  79        79   982     654.4 
  80        80   980     604.4 
  81        81   981     617.4 
  82        82   980     636.1 
  83        83   982     663.6 
  84        84   980     651.7 
  85        85   980     600.3 
  86        86   980     595.2 
  87        87   982     645.6 
  88        88   981     660.2 
  89        89   980     639.1 
  90        90   981     629.3 
  91        91   981     654.8 
  92        92   982     655.1 
  93        93   980     643.5 
  94        94   980     610.2 
  95        95   980     641.2 
  96        96   982     654.4 
  97        97   981     626.9 
  98        98   980     629.3 
  99        99   980     608.5 
 100       100   980     643.9 
 101       101   981     672.1 
 102       102   980     634.4 
 103       103   980     585.7 
 104       104   980     615.0 
 105       105   982     610.7 
 106       106   980     650.3 
 107       107   980     610.9 
 108       108   980     615.3 
 109       109   981     633.0 
 110       110   980     619.7 
 111       111   980     635.0 
 112       112   980     598.6 
 113       113   980     621.1 
 114       114   981     677.9 
 115       115   980     630.3 
 116       116   980     628.6 
 117       117   980     577.6 
 118       118   980     619.4 
 119       119   980     639.1 
 120       120   979     616.6 
 121       121   980     604.1 
 122       122   980     601.0 
 123       123   981     610.6 
 124       124   979     589.4 
 125       125   980     585.4 
 126       126   980     608.5 
 127       127   981     592.6 
 128       128   980     618.4 
 129       129   979     615.3 
 130       130   979     615.9 
 131       131   980     606.1 
 132       132   980     607.5 
 133       133   979     611.5 
 134       134   979     565.9 
 135       135   979     575.8 
 136       136   980     607.8 
 137       137   979     612.2 
 138       138   979     580.9 
 139       139   979     598.2 
 140       140   980     585.4 
 141       141   980     600.3 
 142       142   978     593.4 
 143       143   980     578.6 
 144       144   979     580.5 
 145       145   980     595.9 
 146       146   978     609.1 
 147       147   979     599.3 
 148       148   979     595.5 
 149       149   979     557.7 
 150       150   979     557.7 
 151       210  1000     730.7 
 152       270   997     588.4 
 153       330  1000     567.7 
 154       390   996     550.5 
 155       450   996     537.5 
 156       510   996     505.7 
 157       570   994     516.4 
 158       630   998     522.4 
 159       810   983     518.1 
 160       990   980     473.5 
 161      1170   985     563.5 
 162      1350   986     353.6 
 163      1530   981     470.3 
 164      2070   980     565.6 
 165      2691   973     443.3 
 166      3405   978     389.9 
 167      4226   978     472.7 
 168      5170   976     434.1 
 169      6256   975     360.3 
 170      7505   974     424.7 
 171      8941   977     314.2 
 172     10592   975     325.5 
 173     12491   973     333.0 
 174     14675   979     452.2 
 175     17187   975     410.6 
 176     20076   974     409.3 
 177     23398   977     394.7 
 178     27218   979     333.3 
 179     31611   980     360.2 
 180     36663   980     365.6 
 181     42473   977     327.2 
 182     49155   978     384.8 
 183     56839   980     354.4 
 184     65676   977     435.3 
 185     75839   981     435.3 
   1         1   156     647.4 
   2         2   817     716.9 
   3         3   953     744.3 
   4         4   969     749.6 
   5         5   972     721.9 
   6         6   973     730.4 
   7         7   973     768.8 
   8         8   977     767.0 
   9         9   974     795.3 
  10        10   975     772.6 
  11        11   976     817.6 
  12        12   977     805.9 
  13        13   977     819.2 
  14        14   977     819.2 
  15        15   977     807.2 
  16        16   978     836.1 
  17        17   980     796.3 
  18        18   977     813.4 
  19        19   978     776.1 
  20        20   979     781.4 
  21        21   980     758.2 
  22        22   979     795.0 
  23        23   979     767.4 
  24        24   979     750.4 
  25        25   980     751.0 
  26        26   980     760.9 
  27        27   978     814.9 
  28        28   980     733.7 
  29        29   980     808.8 
  30        30   980     739.5 
  31        31   980     779.9 
  32        32   980     792.9 
  33        33   980     754.8 
  34        34   981     784.2 
  35        35   981     788.7 
  36        36   980     787.8 
  37        37   981     776.1 
  38        38   980     785.4 
  39        39   981     758.1 
  40        40   980     765.3 
  41        41   981     772.0 
  42        42   980     782.7 
  43        43   982     744.1 
  44        44   981     780.2 
  45        45   980     806.1 
  46        46   981     760.8 
  47        47   982     782.1 
  48        48   982     769.5 
  49        49   981     791.0 
  50        50   981     811.4 
  51        51   980     782.0 
  52        52   983     791.8 
  53        53   981     801.9 
  54        54   981     809.0 
  55        55   981     762.5 
  56        56   982     768.8 
  57        57   982     780.4 
  58        58   981     822.6 
  59        59   981     781.2 
  60        60   980     796.6 
  61        61   983     778.9 
  62        62   981     806.3 
  63        63   981     781.9 
  64        64   981     761.1 
  65        65   982     774.3 
  66        66   982     782.4 
  67        67   981     802.9 
  68        68   981     757.7 
  69        69   981     784.2 
  70        70   983     764.7 
  71        71   980     810.2 
  72        72   981     780.2 
  73        73   981     794.4 
  74        74   982     770.9 
  75        75   981     793.7 
  76        76   980     799.3 
  77        77   980     751.7 
  78        78   982     793.6 
  79        79   982     804.8 
  80        80   980     770.7 
  81        81   981     776.1 
  82        82   980     731.0 
  83        83   982     776.3 
  84        84   980     770.7 
  85        85   980     812.9 
  86        86   980     754.4 
  87        87   982     802.8 
  88        88   981     780.5 
  89        89   980     861.6 
  90        90   981     789.3 
  91        91   981     784.2 
  92        92   982     759.0 
  93        93   980     802.0 
  94        94   980     789.1 
  95        95   980     789.5 
  96        96   982     790.6 
  97        97   981     778.8 
  98        98   980     821.1 
  99        99   980     784.0 
 100       100   980     775.9 
 101       101   981     810.7 
 102       102   980     812.6 
 103       103   980     796.3 
 104       104   980     785.4 
 105       105   982     784.8 
 106       106   980     775.5 
 107       107   980     818.0 
 108       108   980     802.4 
 109       109   981     796.8 
 110       110   980     812.2 
 111       111   980     782.0 
 112       112   980     802.0 
 113       113   980     772.4 
 114       114   981     797.1 
 115       115   980     800.7 
 116       116   980     820.7 
 117       117   980     775.2 
 118       118   980     789.1 
 119       119   980     809.5 
 120       120   979     818.5 
 121       121   980     831.0 
 122       122   980     779.6 
 123       123   981     796.8 
 124       124   979     800.5 
 125       125   980     846.6 
 126       126   980     802.4 
 127       127   981     783.2 
 128       128   980     813.3 
 129       129   979     825.0 
 130       130   979     812.7 
 131       131   980     787.1 
 132       132   980     794.6 
 133       133   979     787.2 
 134       134   979     833.5 
 135       135   979     805.9 
 136       136   980     804.1 
 137       137   979     815.5 
 138       138   979     829.8 
 139       139   979     803.2 
 140       140   980     802.7 
 141       141   980     794.2 
 142       142   978     812.2 
 143       143   980     813.9 
 144       144   979     789.9 
 145       145   980     792.5 
 146       146   978     804.7 
 147       147   979     810.7 
 148       148   979     773.9 
 149       149   979     789.9 
 150       150   979     789.9 
 151       210  1000     723.7 
 152       270   997     793.0 
 153       330  1000     768.0 
 154       390   996     818.9 
 155       450   996     793.8 
 156       510   996     814.9 
 157       570   994     724.0 
 158       630   998     814.6 
 159       810   983     774.5 
 160       990   980     788.1 
 161      1170   985     813.2 
 162      1350   986     779.2 
 163      1530   981     763.2 
 164      2070   980     768.0 
 165      2691   973     773.9 
 166      3405   978     704.2 
 167      4226   978     727.0 
 168      5170   976     639.0 
 169      6256   975     757.6 
 170      7505   974     720.1 
 171      8941   977     617.5 
 172     10592   975     660.5 
 173     12491   973     667.7 
 174     14675   979     651.3 
 175     17187   975     729.2 
 176     20076   974     608.1 
 177     23398   977     650.3 
 178     27218   979     593.8 
 179     31611   980     562.6 
 180     36663   980     517.7 
 181     42473   977     585.8 
 182     49155   978     532.4 
 183     56839   980     475.2 
 184     65676   977     429.5 
 185     75839   981     429.5 
