PC/104 FIRe Fluorometer 2.0.0
 4/ 8/2025     39768
LED Color:           blue
Gain:               1900
Sample Delay (msec):    10
Number Samples:   3
STF (usec):      150
STRP (#samples):       35
STRI (usec):       60
MTF (ms):        0
MTF (#samples):     0
MTRP (#samples):        0
MTRI (usec):      100
PQLen:     4
Ambient Light Source Power: Off
PAR (uMol/m^2/s):462.69
Comment:
Depth(m):  -1.9
Temperature(C):  74.5
Battery(V):  14.09

         Time    EX   Fl-Yield 
DATA--------------------------
   0         0     0       0.0 
   1         1   156     235.0 
   2         2   817     301.1 
   3         3   953     295.6 
   4         4   969     308.6 
   5         5   972     340.9 
   6         6   973     327.2 
   7         7   973     342.2 
   8         8   977     323.8 
   9         9   974     331.6 
  10        10   975     347.0 
  11        11   976     370.9 
  12        12   977     365.7 
  13        13   977     359.9 
  14        14   977     382.8 
  15        15   977     379.7 
  16        16   978     399.5 
  17        17   980     373.1 
  18        18   977     407.7 
  19        19   978     380.7 
  20        20   979     353.8 
  21        21   980     404.1 
  22        22   979     387.8 
  23        23   979     428.7 
  24        24   979     408.6 
  25        25   980     417.7 
  26        26   980     378.6 
  27        27   978     447.9 
  28        28   980     437.8 
  29        29   980     427.6 
  30        30   980     446.9 
  31        31   980     443.9 
  32        32   980     444.9 
  33        33   980     455.1 
  34        34   981     426.1 
  35        35   981     476.4 
  36        36   980     494.6 
  37        37   981     461.4 
  38        38   980     440.8 
  39        39   981     457.7 
  40        40   980     482.3 
  41        41   981     503.2 
  42        42   980     463.3 
  43        43   982     474.2 
  44        44   981     489.6 
  45        45   980     486.4 
  46        46   981     503.2 
  47        47   982     473.2 
  48        48   982     484.0 
  49        49   981     552.8 
  50        50   981     467.9 
  51        51   980     500.7 
  52        52   983     459.1 
  53        53   981     490.3 
  54        54   981     482.5 
  55        55   981     440.4 
  56        56   982     446.7 
  57        57   982     502.7 
  58        58   981     521.9 
  59        59   981     521.6 
  60        60   980     484.7 
  61        61   983     436.1 
  62        62   981     543.7 
  63        63   981     498.8 
  64        64   981     494.7 
  65        65   982     490.8 
  66        66   982     498.0 
  67        67   981     510.0 
  68        68   981     462.5 
  69        69   981     500.8 
  70        70   983     477.5 
  71        71   980     555.4 
  72        72   981     510.4 
  73        73   981     497.5 
  74        74   982     495.2 
  75        75   981     505.6 
  76        76   980     528.9 
  77        77   980     495.2 
  78        78   982     466.4 
  79        79   982     523.1 
  80        80   980     523.8 
  81        81   981     504.9 
  82        82   980     497.6 
  83        83   982     521.0 
  84        84   980     530.6 
  85        85   980     505.1 
  86        86   980     490.1 
  87        87   982     504.4 
  88        88   981     535.5 
  89        89   980     517.0 
  90        90   981     507.0 
  91        91   981     484.2 
  92        92   982     512.6 
  93        93   980     512.2 
  94        94   980     497.6 
  95        95   980     489.8 
  96        96   982     505.1 
  97        97   981     514.1 
  98        98   980     502.7 
  99        99   980     522.4 
 100       100   980     468.4 
 101       101   981     524.0 
 102       102   980     486.7 
 103       103   980     492.9 
 104       104   980     531.0 
 105       105   982     494.6 
 106       106   980     499.7 
 107       107   980     489.1 
 108       108   980     471.4 
 109       109   981     502.2 
 110       110   980     524.5 
 111       111   980     502.4 
 112       112   980     485.7 
 113       113   980     494.9 
 114       114   981     495.4 
 115       115   980     473.1 
 116       116   980     533.3 
 117       117   980     463.9 
 118       118   980     514.3 
 119       119   980     515.3 
 120       120   979     521.6 
 121       121   980     496.6 
 122       122   980     522.4 
 123       123   981     523.3 
 124       124   979     551.2 
 125       125   980     508.8 
 126       126   980     548.0 
 127       127   981     549.4 
 128       128   980     518.0 
 129       129   979     508.0 
 130       130   979     495.7 
 131       131   980     515.3 
 132       132   980     511.9 
 133       133   979     513.4 
 134       134   979     556.7 
 135       135   979     529.1 
 136       136   980     518.0 
 137       137   979     482.5 
 138       138   979     555.3 
 139       139   979     494.4 
 140       140   980     526.5 
 141       141   980     475.5 
 142       142   978     514.3 
 143       143   980     473.5 
 144       144   979     492.7 
 145       145   980     494.6 
 146       146   978     455.4 
 147       147   979     494.7 
 148       148   979     473.3 
 149       149   979     529.8 
 150       150   979     529.8 
 151       210  1000     562.3 
 152       270   997     519.9 
 153       330  1000     508.0 
 154       390   996     456.8 
 155       450   996     465.9 
 156       510   996     457.5 
 157       570   994     504.0 
 158       630   998     463.6 
 159       810   983     464.9 
 160       990   980     340.5 
 161      1170   985     417.6 
 162      1350   986     434.4 
 163      1530   981     404.7 
 164      2070   980     498.6 
 165      2691   973     394.7 
 166      3405   978     375.9 
 167      4226   978     365.4 
 168      5170   976     320.7 
 169      6256   975     341.2 
 170      7505   974     369.3 
 171      8941   977     382.1 
 172     10592   975     278.6 
 173     12491   973     297.4 
 174     14675   979     445.7 
 175     17187   975     409.9 
 176     20076   974     404.2 
 177     23398   977     404.6 
 178     27218   979     369.1 
 179     31611   980     511.9 
 180     36663   980     337.1 
 181     42473   977     318.7 
 182     49155   978     396.4 
 183     56839   980     313.6 
 184     65676   977     346.6 
 185     75839   981     346.6 
   1         1   156     346.2 
   2         2   817     557.3 
   3         3   953     543.5 
   4         4   969     518.1 
   5         5   972     536.7 
   6         6   973     560.1 
   7         7   973     530.3 
   8         8   977     529.2 
   9         9   974     540.7 
  10        10   975     560.7 
  11        11   976     561.1 
  12        12   977     561.2 
  13        13   977     570.5 
  14        14   977     617.5 
  15        15   977     601.8 
  16        16   978     565.8 
  17        17   980     577.2 
  18        18   977     595.0 
  19        19   978     605.3 
  20        20   979     566.2 
  21        21   980     519.7 
  22        22   979     526.4 
  23        23   979     579.2 
  24        24   979     534.6 
  25        25   980     538.1 
  26        26   980     538.8 
  27        27   978     528.3 
  28        28   980     551.7 
  29        29   980     561.9 
  30        30   980     506.1 
  31        31   980     517.7 
  32        32   980     572.8 
  33        33   980     532.7 
  34        34   981     555.6 
  35        35   981     544.0 
  36        36   980     545.6 
  37        37   981     556.9 
  38        38   980     535.0 
  39        39   981     549.1 
  40        40   980     579.6 
  41        41   981     551.1 
  42        42   980     540.8 
  43        43   982     553.6 
  44        44   981     583.4 
  45        45   980     555.8 
  46        46   981     572.5 
  47        47   982     543.8 
  48        48   982     511.5 
  49        49   981     594.0 
  50        50   981     575.9 
  51        51   980     541.2 
  52        52   983     545.3 
  53        53   981     589.9 
  54        54   981     579.3 
  55        55   981     588.2 
  56        56   982     551.6 
  57        57   982     587.9 
  58        58   981     580.4 
  59        59   981     595.3 
  60        60   980     544.2 
  61        61   983     539.2 
  62        62   981     603.5 
  63        63   981     567.4 
  64        64   981     585.5 
  65        65   982     593.7 
  66        66   982     590.0 
  67        67   981     592.9 
  68        68   981     540.9 
  69        69   981     580.0 
  70        70   983     591.0 
  71        71   980     618.4 
  72        72   981     585.8 
  73        73   981     585.1 
  74        74   982     567.5 
  75        75   981     633.4 
  76        76   980     643.5 
  77        77   980     548.3 
  78        78   982     559.4 
  79        79   982     620.8 
  80        80   980     643.9 
  81        81   981     622.5 
  82        82   980     600.0 
  83        83   982     612.4 
  84        84   980     617.7 
  85        85   980     618.0 
  86        86   980     609.9 
  87        87   982     614.4 
  88        88   981     668.7 
  89        89   980     657.1 
  90        90   981     617.1 
  91        91   981     623.2 
  92        92   982     654.8 
  93        93   980     665.0 
  94        94   980     636.1 
  95        95   980     623.8 
  96        96   982     613.4 
  97        97   981     639.8 
  98        98   980     643.9 
  99        99   980     619.4 
 100       100   980     636.7 
 101       101   981     634.7 
 102       102   980     657.5 
 103       103   980     624.1 
 104       104   980     624.1 
 105       105   982     614.4 
 106       106   980     624.5 
 107       107   980     640.8 
 108       108   980     619.0 
 109       109   981     627.3 
 110       110   980     642.9 
 111       111   980     631.0 
 112       112   980     594.2 
 113       113   980     614.3 
 114       114   981     622.8 
 115       115   980     619.7 
 116       116   980     618.4 
 117       117   980     605.4 
 118       118   980     602.7 
 119       119   980     615.3 
 120       120   979     632.3 
 121       121   980     599.0 
 122       122   980     622.4 
 123       123   981     604.5 
 124       124   979     604.7 
 125       125   980     602.4 
 126       126   980     599.7 
 127       127   981     608.9 
 128       128   980     634.4 
 129       129   979     587.3 
 130       130   979     578.5 
 131       131   980     609.2 
 132       132   980     622.1 
 133       133   979     616.6 
 134       134   979     623.4 
 135       135   979     602.3 
 136       136   980     615.6 
 137       137   979     612.5 
 138       138   979     600.3 
 139       139   979     602.3 
 140       140   980     623.8 
 141       141   980     625.5 
 142       142   978     567.1 
 143       143   980     580.6 
 144       144   979     577.8 
 145       145   980     578.2 
 146       146   978     578.7 
 147       147   979     565.5 
 148       148   979     524.7 
 149       149   979     531.5 
 150       150   979     531.5 
 151       210  1000     706.3 
 152       270   997     655.0 
 153       330  1000     732.7 
 154       390   996     569.9 
 155       450   996     677.0 
 156       510   996     649.3 
 157       570   994     696.5 
 158       630   998     564.5 
 159       810   983     723.3 
 160       990   980     603.1 
 161      1170   985     554.0 
 162      1350   986     684.2 
 163      1530   981     611.6 
 164      2070   980     631.6 
 165      2691   973     583.8 
 166      3405   978     495.6 
 167      4226   978     663.6 
 168      5170   976     581.3 
 169      6256   975     580.5 
 170      7505   974     554.8 
 171      8941   977     526.4 
 172     10592   975     551.1 
 173     12491   973     527.2 
 174     14675   979     517.2 
 175     17187   975     503.9 
 176     20076   974     594.5 
 177     23398   977     493.0 
 178     27218   979     436.5 
 179     31611   980     425.9 
 180     36663   980     347.3 
 181     42473   977     329.6 
 182     49155   978     482.6 
 183     56839   980     450.0 
 184     65676   977     354.5 
 185     75839   981     354.5 
