PC/104 FIRe Fluorometer 2.0.0
 4/ 8/2025     40243
LED Color:           blue
Gain:               1900
Sample Delay (msec):    10
Number Samples:   3
STF (usec):      150
STRP (#samples):       35
STRI (usec):       60
MTF (ms):        0
MTF (#samples):     0
MTRP (#samples):        0
MTRI (usec):      100
PQLen:     4
Ambient Light Source Power: Off
PAR (uMol/m^2/s):789.92
Comment:
Depth(m):  -2.0
Temperature(C):  76.1
Battery(V):  14.03

         Time    EX   Fl-Yield 
DATA--------------------------
   0         0     0       0.0 
   1         1   156     307.7 
   2         2   817     268.5 
   3         3   953     277.0 
   4         4   969     336.4 
   5         5   972     334.4 
   6         6   973     295.3 
   7         7   973     266.9 
   8         8   977     305.7 
   9         9   974     365.8 
  10        10   975     369.6 
  11        11   976     339.8 
  12        12   977     348.0 
  13        13   977     387.2 
  14        14   977     386.9 
  15        15   977     359.9 
  16        16   978     378.0 
  17        17   980     383.7 
  18        18   977     408.7 
  19        19   978     408.7 
  20        20   979     364.7 
  21        21   980     387.8 
  22        22   979     415.4 
  23        23   979     413.7 
  24        24   979     368.7 
  25        25   980     377.9 
  26        26   980     388.1 
  27        27   978     455.4 
  28        28   980     435.0 
  29        29   980     406.8 
  30        30   980     405.4 
  31        31   980     432.3 
  32        32   980     445.2 
  33        33   980     387.4 
  34        34   981     395.5 
  35        35   981     458.4 
  36        36   980     444.2 
  37        37   981     386.7 
  38        38   980     401.4 
  39        39   981     443.1 
  40        40   980     466.3 
  41        41   981     405.0 
  42        42   980     401.4 
  43        43   982     415.8 
  44        44   981     455.7 
  45        45   980     487.4 
  46        46   981     427.5 
  47        47   982     420.9 
  48        48   982     400.5 
  49        49   981     499.2 
  50        50   981     452.6 
  51        51   980     455.4 
  52        52   983     458.5 
  53        53   981     473.7 
  54        54   981     415.6 
  55        55   981     422.0 
  56        56   982     434.5 
  57        57   982     454.2 
  58        58   981     497.1 
  59        59   981     442.1 
  60        60   980     412.2 
  61        61   983     441.8 
  62        62   981     487.3 
  63        63   981     414.9 
  64        64   981     428.1 
  65        65   982     422.9 
  66        66   982     481.3 
  67        67   981     433.2 
  68        68   981     487.3 
  69        69   981     418.6 
  70        70   983     487.3 
  71        71   980     492.2 
  72        72   981     471.3 
  73        73   981     398.2 
  74        74   982     464.4 
  75        75   981     504.2 
  76        76   980     446.6 
  77        77   980     418.4 
  78        78   982     455.9 
  79        79   982     513.6 
  80        80   980     478.9 
  81        81   981     459.1 
  82        82   980     442.5 
  83        83   982     464.7 
  84        84   980     501.0 
  85        85   980     440.5 
  86        86   980     465.6 
  87        87   982     481.0 
  88        88   981     482.5 
  89        89   980     457.5 
  90        90   981     454.3 
  91        91   981     474.3 
  92        92   982     500.7 
  93        93   980     450.7 
  94        94   980     409.2 
  95        95   980     448.0 
  96        96   982     467.8 
  97        97   981     488.3 
  98        98   980     467.3 
  99        99   980     476.2 
 100       100   980     475.5 
 101       101   981     499.2 
 102       102   980     457.8 
 103       103   980     451.7 
 104       104   980     489.5 
 105       105   982     492.5 
 106       106   980     479.9 
 107       107   980     471.8 
 108       108   980     450.3 
 109       109   981     489.6 
 110       110   980     498.6 
 111       111   980     466.3 
 112       112   980     468.4 
 113       113   980     500.0 
 114       114   981     515.8 
 115       115   980     473.5 
 116       116   980     486.7 
 117       117   980     452.0 
 118       118   980     516.0 
 119       119   980     477.2 
 120       120   979     458.0 
 121       121   980     467.0 
 122       122   980     482.7 
 123       123   981     518.9 
 124       124   979     464.1 
 125       125   980     447.3 
 126       126   980     479.3 
 127       127   981     486.9 
 128       128   980     466.3 
 129       129   979     482.5 
 130       130   979     457.3 
 131       131   980     470.7 
 132       132   980     522.8 
 133       133   979     444.3 
 134       134   979     475.3 
 135       135   979     488.9 
 136       136   980     510.5 
 137       137   979     436.8 
 138       138   979     464.4 
 139       139   979     464.8 
 140       140   980     502.0 
 141       141   980     489.5 
 142       142   978     465.6 
 143       143   980     452.4 
 144       144   979     476.3 
 145       145   980     492.9 
 146       146   978     464.9 
 147       147   979     482.5 
 148       148   979     499.5 
 149       149   979     441.6 
 150       150   979     441.6 
 151       210  1000     504.7 
 152       270   997     491.1 
 153       330  1000     615.3 
 154       390   996     515.4 
 155       450   996     480.6 
 156       510   996     347.1 
 157       570   994     409.5 
 158       630   998     474.9 
 159       810   983     398.8 
 160       990   980     483.0 
 161      1170   985     389.8 
 162      1350   986     350.6 
 163      1530   981     495.4 
 164      2070   980     359.2 
 165      2691   973     432.3 
 166      3405   978     401.5 
 167      4226   978     444.8 
 168      5170   976     374.7 
 169      6256   975     385.3 
 170      7505   974     470.6 
 171      8941   977     237.5 
 172     10592   975     425.6 
 173     12491   973     291.9 
 174     14675   979     436.8 
 175     17187   975     352.1 
 176     20076   974     345.0 
 177     23398   977     373.6 
 178     27218   979     216.5 
 179     31611   980     346.3 
 180     36663   980     261.2 
 181     42473   977     394.7 
 182     49155   978     375.6 
 183     56839   980     333.7 
 184     65676   977     361.3 
 185     75839   981     361.3 
   1         1   156     427.4 
   2         2   817     435.7 
   3         3   953     425.3 
   4         4   969     422.8 
   5         5   972     423.2 
   6         6   973     415.2 
   7         7   973     409.7 
   8         8   977     461.6 
   9         9   974     480.2 
  10        10   975     452.6 
  11        11   976     505.5 
  12        12   977     494.4 
  13        13   977     498.8 
  14        14   977     504.9 
  15        15   977     478.7 
  16        16   978     499.3 
  17        17   980     522.1 
  18        18   977     455.1 
  19        19   978     454.3 
  20        20   979     507.7 
  21        21   980     473.8 
  22        22   979     448.8 
  23        23   979     412.0 
  24        24   979     449.8 
  25        25   980     446.3 
  26        26   980     459.9 
  27        27   978     455.0 
  28        28   980     417.3 
  29        29   980     436.7 
  30        30   980     436.7 
  31        31   980     415.3 
  32        32   980     400.0 
  33        33   980     435.7 
  34        34   981     463.8 
  35        35   981     465.9 
  36        36   980     436.4 
  37        37   981     459.4 
  38        38   980     477.6 
  39        39   981     457.4 
  40        40   980     401.4 
  41        41   981     430.9 
  42        42   980     459.2 
  43        43   982     408.7 
  44        44   981     439.7 
  45        45   980     442.2 
  46        46   981     461.1 
  47        47   982     415.8 
  48        48   982     427.7 
  49        49   981     437.3 
  50        50   981     428.5 
  51        51   980     452.0 
  52        52   983     435.4 
  53        53   981     454.6 
  54        54   981     417.6 
  55        55   981     462.8 
  56        56   982     461.6 
  57        57   982     434.5 
  58        58   981     459.7 
  59        59   981     454.3 
  60        60   980     454.8 
  61        61   983     468.6 
  62        62   981     422.4 
  63        63   981     450.2 
  64        64   981     406.4 
  65        65   982     444.7 
  66        66   982     417.5 
  67        67   981     455.3 
  68        68   981     443.1 
  69        69   981     383.3 
  70        70   983     417.1 
  71        71   980     438.1 
  72        72   981     456.0 
  73        73   981     446.1 
  74        74   982     425.3 
  75        75   981     425.4 
  76        76   980     409.5 
  77        77   980     441.8 
  78        78   982     401.9 
  79        79   982     419.9 
  80        80   980     439.8 
  81        81   981     426.4 
  82        82   980     445.9 
  83        83   982     457.6 
  84        84   980     388.1 
  85        85   980     436.7 
  86        86   980     442.2 
  87        87   982     451.5 
  88        88   981     399.6 
  89        89   980     419.4 
  90        90   981     431.5 
  91        91   981     463.5 
  92        92   982     427.7 
  93        93   980     442.5 
  94        94   980     422.1 
  95        95   980     429.3 
  96        96   982     433.5 
  97        97   981     418.6 
  98        98   980     461.6 
  99        99   980     424.8 
 100       100   980     456.1 
 101       101   981     384.3 
 102       102   980     436.1 
 103       103   980     455.1 
 104       104   980     465.6 
 105       105   982     435.5 
 106       106   980     431.0 
 107       107   980     453.1 
 108       108   980     454.1 
 109       109   981     440.7 
 110       110   980     428.9 
 111       111   980     453.4 
 112       112   980     440.1 
 113       113   980     482.7 
 114       114   981     449.5 
 115       115   980     448.0 
 116       116   980     469.7 
 117       117   980     482.3 
 118       118   980     467.7 
 119       119   980     467.0 
 120       120   979     446.7 
 121       121   980     476.9 
 122       122   980     477.2 
 123       123   981     450.9 
 124       124   979     484.8 
 125       125   980     483.3 
 126       126   980     459.5 
 127       127   981     455.7 
 128       128   980     460.2 
 129       129   979     453.9 
 130       130   979     455.9 
 131       131   980     440.5 
 132       132   980     449.7 
 133       133   979     458.0 
 134       134   979     459.0 
 135       135   979     476.7 
 136       136   980     449.3 
 137       137   979     444.3 
 138       138   979     476.7 
 139       139   979     461.7 
 140       140   980     470.1 
 141       141   980     445.9 
 142       142   978     425.4 
 143       143   980     450.7 
 144       144   979     461.0 
 145       145   980     432.0 
 146       146   978     453.6 
 147       147   979     453.5 
 148       148   979     441.6 
 149       149   979     447.1 
 150       150   979     447.1 
 151       210  1000     425.0 
 152       270   997     451.4 
 153       330  1000     439.0 
 154       390   996     425.0 
 155       450   996     494.0 
 156       510   996     464.5 
 157       570   994     454.7 
 158       630   998     549.1 
 159       810   983     448.6 
 160       990   980     572.1 
 161      1170   985     454.8 
 162      1350   986     503.7 
 163      1530   981     481.8 
 164      2070   980     430.6 
 165      2691   973     469.3 
 166      3405   978     521.8 
 167      4226   978     468.6 
 168      5170   976     487.0 
 169      6256   975     390.1 
 170      7505   974     428.8 
 171      8941   977     511.8 
 172     10592   975     415.7 
 173     12491   973     444.7 
 174     14675   979     492.0 
 175     17187   975     393.5 
 176     20076   974     377.8 
 177     23398   977     390.0 
 178     27218   979     371.5 
 179     31611   980     332.0 
 180     36663   980     298.6 
 181     42473   977     254.9 
 182     49155   978     422.6 
 183     56839   980     319.7 
 184     65676   977     413.5 
 185     75839   981     413.5 
