PC/104 FIRe Fluorometer 2.0.0
 4/ 8/2025     24366
LED Color:           blue
Gain:               1500
Sample Delay (msec):    10
Number Samples:   3
STF (usec):      150
STRP (#samples):       35
STRI (usec):       60
MTF (ms):        0
MTF (#samples):     0
MTRP (#samples):        0
MTRI (usec):      100
PQLen:     4
Ambient Light Source Power: Off
PAR (uMol/m^2/s):900.00
Comment:
Depth(m):   3.9
Temperature(C):  36.6
Battery(V):  16.65

         Time    EX   Fl-Yield 
DATA--------------------------
   0         0     0       0.0 
   1         1   156     237.2 
   2         2   817     230.9 
   3         3   953     200.1 
   4         4   969     210.2 
   5         5   972     242.1 
   6         6   973     238.8 
   7         7   973     186.7 
   8         8   977     206.1 
   9         9   974     224.5 
  10        10   975     247.9 
  11        11   976     210.4 
  12        12   977     211.2 
  13        13   977     223.5 
  14        14   977     251.1 
  15        15   977     223.5 
  16        16   978     205.9 
  17        17   980     210.2 
  18        18   977     233.4 
  19        19   978     233.5 
  20        20   979     216.9 
  21        21   980     203.1 
  22        22   979     229.1 
  23        23   979     229.1 
  24        24   979     234.9 
  25        25   980     202.0 
  26        26   980     227.9 
  27        27   978     237.6 
  28        28   980     230.3 
  29        29   980     216.3 
  30        30   980     229.3 
  31        31   980     233.7 
  32        32   980     239.1 
  33        33   980     223.5 
  34        34   981     237.9 
  35        35   981     266.4 
  36        36   980     243.5 
  37        37   981     229.4 
  38        38   980     222.4 
  39        39   981     250.4 
  40        40   980     249.7 
  41        41   981     224.9 
  42        42   980     207.5 
  43        43   982     234.6 
  44        44   981     254.2 
  45        45   980     231.0 
  46        46   981     221.9 
  47        47   982     228.4 
  48        48   982     260.0 
  49        49   981     244.6 
  50        50   981     219.2 
  51        51   980     239.1 
  52        52   983     244.8 
  53        53   981     245.3 
  54        54   981     235.1 
  55        55   981     225.3 
  56        56   982     265.8 
  57        57   982     252.9 
  58        58   981     226.6 
  59        59   981     215.4 
  60        60   980     228.2 
  61        61   983     277.4 
  62        62   981     239.6 
  63        63   981     226.3 
  64        64   981     244.6 
  65        65   982     261.0 
  66        66   982     246.4 
  67        67   981     238.9 
  68        68   981     250.4 
  69        69   981     259.6 
  70        70   983     275.3 
  71        71   980     247.6 
  72        72   981     261.3 
  73        73   981     269.8 
  74        74   982     278.0 
  75        75   981     253.5 
  76        76   980     246.9 
  77        77   980     259.2 
  78        78   982     281.4 
  79        79   982     262.1 
  80        80   980     243.5 
  81        81   981     265.0 
  82        82   980     290.1 
  83        83   982     297.7 
  84        84   980     255.8 
  85        85   980     274.8 
  86        86   980     272.4 
  87        87   982     299.7 
  88        88   981     248.7 
  89        89   980     264.3 
  90        90   981     275.6 
  91        91   981     305.1 
  92        92   982     281.1 
  93        93   980     290.5 
  94        94   980     290.5 
  95        95   980     318.0 
  96        96   982     309.2 
  97        97   981     283.7 
  98        98   980     295.2 
  99        99   980     309.2 
 100       100   980     311.2 
 101       101   981     292.2 
 102       102   980     292.5 
 103       103   980     309.2 
 104       104   980     325.9 
 105       105   982     302.8 
 106       106   980     288.1 
 107       107   980     306.8 
 108       108   980     340.1 
 109       109   981     321.1 
 110       110   980     304.4 
 111       111   980     299.7 
 112       112   980     341.5 
 113       113   980     334.4 
 114       114   981     317.4 
 115       115   980     323.5 
 116       116   980     335.7 
 117       117   980     346.3 
 118       118   980     323.5 
 119       119   980     329.6 
 120       120   979     331.3 
 121       121   980     353.4 
 122       122   980     337.1 
 123       123   981     328.6 
 124       124   979     317.0 
 125       125   980     350.3 
 126       126   980     343.5 
 127       127   981     310.6 
 128       128   980     332.7 
 129       129   979     348.3 
 130       130   979     341.8 
 131       131   980     327.9 
 132       132   980     329.9 
 133       133   979     345.6 
 134       134   979     370.8 
 135       135   979     327.9 
 136       136   980     331.0 
 137       137   979     331.3 
 138       138   979     354.8 
 139       139   979     339.1 
 140       140   980     348.6 
 141       141   980     340.8 
 142       142   978     353.8 
 143       143   980     346.3 
 144       144   979     311.5 
 145       145   980     323.8 
 146       146   978     354.1 
 147       147   979     361.9 
 148       148   979     345.9 
 149       149   979     335.7 
 150       150   979     335.7 
 151       210  1000     319.7 
 152       270   997     289.2 
 153       330  1000     317.7 
 154       390   996     276.8 
 155       450   996     282.8 
 156       510   996     270.4 
 157       570   994     251.5 
 158       630   998     226.8 
 159       810   983     233.0 
 160       990   980     243.9 
 161      1170   985     247.0 
 162      1350   986     290.4 
 163      1530   981     272.5 
 164      2070   980     279.3 
 165      2691   973     242.9 
 166      3405   978     196.0 
 167      4226   978     147.9 
 168      5170   976     258.2 
 169      6256   975     297.1 
 170      7505   974     253.6 
 171      8941   977     259.3 
 172     10592   975     227.7 
 173     12491   973     169.9 
 174     14675   979     260.8 
 175     17187   975     213.3 
 176     20076   974     221.4 
 177     23398   977     207.1 
 178     27218   979     186.9 
 179     31611   980     232.0 
 180     36663   980     207.1 
 181     42473   977     188.7 
 182     49155   978     200.7 
 183     56839   980     218.7 
 184     65676   977     212.9 
 185     75839   981     212.9 
   1         1   156     756.4 
   2         2   817     776.8 
   3         3   953     789.8 
   4         4   969     793.6 
   5         5   972     767.8 
   6         6   973     778.0 
   7         7   973     823.6 
   8         8   977     832.5 
   9         9   974     805.3 
  10        10   975     825.3 
  11        11   976     851.4 
  12        12   977     876.8 
  13        13   977     866.6 
  14        14   977     871.4 
  15        15   977     906.5 
  16        16   978     895.4 
  17        17   980     872.4 
  18        18   977     871.0 
  19        19   978     881.4 
  20        20   979     877.4 
  21        21   980     870.1 
  22        22   979     840.3 
  23        23   979     862.8 
  24        24   979     845.4 
  25        25   980     843.2 
  26        26   980     829.3 
  27        27   978     822.4 
  28        28   980     836.7 
  29        29   980     853.1 
  30        30   980     840.5 
  31        31   980     803.4 
  32        32   980     846.9 
  33        33   980     825.2 
  34        34   981     850.5 
  35        35   981     812.1 
  36        36   980     828.9 
  37        37   981     858.3 
  38        38   980     839.8 
  39        39   981     836.6 
  40        40   980     836.7 
  41        41   981     852.2 
  42        42   980     852.4 
  43        43   982     829.6 
  44        44   981     831.1 
  45        45   980     850.0 
  46        46   981     877.3 
  47        47   982     856.8 
  48        48   982     855.7 
  49        49   981     858.0 
  50        50   981     879.0 
  51        51   980     854.4 
  52        52   983     870.8 
  53        53   981     867.5 
  54        54   981     871.2 
  55        55   981     873.3 
  56        56   982     866.3 
  57        57   982     854.4 
  58        58   981     881.1 
  59        59   981     890.2 
  60        60   980     888.4 
  61        61   983     864.0 
  62        62   981     893.3 
  63        63   981     872.6 
  64        64   981     858.6 
  65        65   982     876.4 
  66        66   982     877.1 
  67        67   981     907.6 
  68        68   981     887.9 
  69        69   981     866.8 
  70        70   983     877.2 
  71        71   980     895.9 
  72        72   981     890.6 
  73        73   981     876.3 
  74        74   982     870.0 
  75        75   981     881.8 
  76        76   980     907.5 
  77        77   980     869.0 
  78        78   982     858.1 
  79        79   982     878.5 
  80        80   980     887.4 
  81        81   981     893.6 
  82        82   980     863.3 
  83        83   982     873.4 
  84        84   980     882.0 
  85        85   980     883.3 
  86        86   980     878.9 
  87        87   982     885.3 
  88        88   981     896.7 
  89        89   980     894.6 
  90        90   981     860.0 
  91        91   981     874.6 
  92        92   982     896.8 
  93        93   980     888.1 
  94        94   980     889.5 
  95        95   980     863.9 
  96        96   982     876.1 
  97        97   981     885.8 
  98        98   980     904.4 
  99        99   980     885.4 
 100       100   980     881.6 
 101       101   981     896.7 
 102       102   980     882.7 
 103       103   980     891.2 
 104       104   980     890.5 
 105       105   982     892.1 
 106       106   980     910.5 
 107       107   980     911.6 
 108       108   980     869.0 
 109       109   981     903.5 
 110       110   980     914.3 
 111       111   980     915.6 
 112       112   980     893.5 
 113       113   980     878.9 
 114       114   981     911.3 
 115       115   980     919.4 
 116       116   980     902.0 
 117       117   980     886.1 
 118       118   980     905.4 
 119       119   980     923.8 
 120       120   979     905.3 
 121       121   980     893.9 
 122       122   980     910.5 
 123       123   981     932.7 
 124       124   979     911.1 
 125       125   980     904.8 
 126       126   980     911.2 
 127       127   981     915.4 
 128       128   980     927.9 
 129       129   979     914.9 
 130       130   979     905.0 
 131       131   980     924.5 
 132       132   980     938.1 
 133       133   979     913.5 
 134       134   979     913.5 
 135       135   979     943.8 
 136       136   980     949.3 
 137       137   979     923.7 
 138       138   979     907.0 
 139       139   979     933.6 
 140       140   980     942.9 
 141       141   980     924.5 
 142       142   978     907.0 
 143       143   980     920.7 
 144       144   979     936.7 
 145       145   980     949.3 
 146       146   978     934.2 
 147       147   979     914.2 
 148       148   979     926.8 
 149       149   979     926.5 
 150       150   979     926.5 
 151       210  1000     778.7 
 152       270   997     835.2 
 153       330  1000     871.3 
 154       390   996     831.3 
 155       450   996     819.3 
 156       510   996     853.1 
 157       570   994     824.9 
 158       630   998     865.7 
 159       810   983     814.2 
 160       990   980     874.8 
 161      1170   985     873.8 
 162      1350   986     832.0 
 163      1530   981     856.3 
 164      2070   980     759.2 
 165      2691   973     727.3 
 166      3405   978     724.9 
 167      4226   978     703.1 
 168      5170   976     776.3 
 169      6256   975     702.9 
 170      7505   974     682.4 
 171      8941   977     628.5 
 172     10592   975     636.6 
 173     12491   973     629.0 
 174     14675   979     679.6 
 175     17187   975     591.1 
 176     20076   974     612.3 
 177     23398   977     585.1 
 178     27218   979     599.6 
 179     31611   980     613.6 
 180     36663   980     533.0 
 181     42473   977     561.2 
 182     49155   978     519.1 
 183     56839   980     507.8 
 184     65676   977     497.1 
 185     75839   981     497.1 
