PC/104 FIRe Fluorometer 2.0.0
 4/ 8/2025     37199
LED Color:           blue
Gain:               1800
Sample Delay (msec):    10
Number Samples:   3
STF (usec):      150
STRP (#samples):       35
STRI (usec):       60
MTF (ms):        0
MTF (#samples):     0
MTRP (#samples):        0
MTRI (usec):      100
PQLen:     4
Ambient Light Source Power: Off
PAR (uMol/m^2/s):527.60
Comment:
Depth(m):  -0.8
Temperature(C):  72.8
Battery(V):  14.37

         Time    EX   Fl-Yield 
DATA--------------------------
   0         0     0       0.0 
   1         1   156      53.4 
   2         2   817     252.1 
   3         3   953     273.9 
   4         4   969     281.4 
   5         5   972     277.4 
   6         6   973     276.8 
   7         7   973     309.4 
   8         8   977     288.0 
   9         9   974     297.7 
  10        10   975     313.8 
  11        11   976     341.2 
  12        12   977     318.0 
  13        13   977     309.5 
  14        14   977     315.9 
  15        15   977     366.8 
  16        16   978     334.7 
  17        17   980     356.8 
  18        18   977     307.7 
  19        19   978     350.0 
  20        20   979     355.1 
  21        21   980     310.2 
  22        22   979     341.8 
  23        23   979     354.1 
  24        24   979     345.9 
  25        25   980     353.1 
  26        26   980     342.5 
  27        27   978     350.7 
  28        28   980     359.2 
  29        29   980     369.0 
  30        30   980     352.0 
  31        31   980     344.2 
  32        32   980     385.0 
  33        33   980     378.6 
  34        34   981     367.7 
  35        35   981     357.8 
  36        36   980     344.6 
  37        37   981     390.1 
  38        38   980     359.9 
  39        39   981     356.1 
  40        40   980     379.3 
  41        41   981     363.6 
  42        42   980     366.0 
  43        43   982     368.3 
  44        44   981     343.2 
  45        45   980     398.0 
  46        46   981     364.9 
  47        47   982     369.3 
  48        48   982     361.2 
  49        49   981     353.0 
  50        50   981     386.7 
  51        51   980     393.9 
  52        52   983     388.9 
  53        53   981     355.1 
  54        54   981     377.8 
  55        55   981     388.7 
  56        56   982     373.0 
  57        57   982     351.3 
  58        58   981     386.3 
  59        59   981     405.0 
  60        60   980     360.9 
  61        61   983     376.1 
  62        62   981     375.8 
  63        63   981     394.2 
  64        64   981     378.2 
  65        65   982     374.1 
  66        66   982     366.6 
  67        67   981     376.8 
  68        68   981     379.9 
  69        69   981     378.9 
  70        70   983     359.8 
  71        71   980     356.1 
  72        72   981     372.1 
  73        73   981     368.0 
  74        74   982     370.0 
  75        75   981     377.2 
  76        76   980     388.8 
  77        77   980     372.4 
  78        78   982     361.2 
  79        79   982     371.4 
  80        80   980     381.6 
  81        81   981     401.6 
  82        82   980     379.6 
  83        83   982     393.4 
  84        84   980     376.2 
  85        85   980     372.1 
  86        86   980     381.6 
  87        87   982     369.3 
  88        88   981     358.8 
  89        89   980     348.0 
  90        90   981     398.9 
  91        91   981     356.1 
  92        92   982     370.0 
  93        93   980     361.6 
  94        94   980     360.9 
  95        95   980     362.6 
  96        96   982     365.9 
  97        97   981     360.9 
  98        98   980     382.7 
  99        99   980     372.4 
 100       100   980     360.5 
 101       101   981     344.9 
 102       102   980     370.4 
 103       103   980     378.6 
 104       104   980     384.4 
 105       105   982     358.5 
 106       106   980     353.7 
 107       107   980     393.9 
 108       108   980     376.9 
 109       109   981     369.4 
 110       110   980     353.4 
 111       111   980     370.1 
 112       112   980     384.0 
 113       113   980     354.1 
 114       114   981     416.9 
 115       115   980     382.0 
 116       116   980     385.7 
 117       117   980     380.3 
 118       118   980     378.6 
 119       119   980     356.1 
 120       120   979     386.1 
 121       121   980     378.6 
 122       122   980     403.1 
 123       123   981     384.6 
 124       124   979     403.5 
 125       125   980     387.8 
 126       126   980     401.7 
 127       127   981     366.3 
 128       128   980     410.2 
 129       129   979     393.6 
 130       130   979     360.6 
 131       131   980     390.1 
 132       132   980     392.2 
 133       133   979     404.5 
 134       134   979     409.3 
 135       135   979     387.1 
 136       136   980     390.1 
 137       137   979     418.5 
 138       138   979     423.9 
 139       139   979     396.3 
 140       140   980     381.0 
 141       141   980     388.4 
 142       142   978     398.1 
 143       143   980     403.1 
 144       144   979     386.8 
 145       145   980     367.3 
 146       146   978     396.0 
 147       147   979     401.1 
 148       148   979     370.1 
 149       149   979     387.8 
 150       150   979     387.8 
 151       210  1000     386.0 
 152       270   997     361.8 
 153       330  1000     360.0 
 154       390   996     396.9 
 155       450   996     334.3 
 156       510   996     343.0 
 157       570   994     377.6 
 158       630   998     425.2 
 159       810   983     424.9 
 160       990   980     357.1 
 161      1170   985     291.4 
 162      1350   986     277.6 
 163      1530   981     291.5 
 164      2070   980     352.0 
 165      2691   973     274.1 
 166      3405   978     340.1 
 167      4226   978     321.4 
 168      5170   976     301.6 
 169      6256   975     328.9 
 170      7505   974     353.5 
 171      8941   977     274.7 
 172     10592   975     315.9 
 173     12491   973     367.6 
 174     14675   979     260.1 
 175     17187   975     312.1 
 176     20076   974     249.8 
 177     23398   977     349.7 
 178     27218   979     286.0 
 179     31611   980     335.0 
 180     36663   980     228.6 
 181     42473   977     307.7 
 182     49155   978     315.3 
 183     56839   980     285.4 
 184     65676   977     284.2 
 185     75839   981     284.2 
   1         1   156     269.2 
   2         2   817     443.1 
   3         3   953     466.2 
   4         4   969     465.4 
   5         5   972     465.0 
   6         6   973     498.1 
   7         7   973     489.9 
   8         8   977     482.4 
   9         9   974     479.5 
  10        10   975     508.7 
  11        11   976     529.7 
  12        12   977     506.3 
  13        13   977     524.1 
  14        14   977     508.7 
  15        15   977     580.7 
  16        16   978     541.2 
  17        17   980     526.2 
  18        18   977     496.8 
  19        19   978     530.7 
  20        20   979     517.5 
  21        21   980     506.5 
  22        22   979     452.8 
  23        23   979     503.9 
  24        24   979     528.1 
  25        25   980     518.0 
  26        26   980     494.2 
  27        27   978     462.2 
  28        28   980     515.6 
  29        29   980     508.2 
  30        30   980     487.1 
  31        31   980     495.9 
  32        32   980     481.6 
  33        33   980     517.7 
  34        34   981     516.1 
  35        35   981     502.9 
  36        36   980     498.3 
  37        37   981     501.9 
  38        38   980     521.4 
  39        39   981     491.7 
  40        40   980     516.7 
  41        41   981     525.3 
  42        42   980     550.7 
  43        43   982     508.5 
  44        44   981     499.8 
  45        45   980     522.1 
  46        46   981     572.5 
  47        47   982     540.4 
  48        48   982     521.0 
  49        49   981     523.6 
  50        50   981     509.7 
  51        51   980     560.2 
  52        52   983     549.3 
  53        53   981     527.0 
  54        54   981     524.3 
  55        55   981     548.8 
  56        56   982     539.7 
  57        57   982     530.9 
  58        58   981     532.8 
  59        59   981     543.0 
  60        60   980     518.4 
  61        61   983     532.7 
  62        62   981     530.8 
  63        63   981     526.0 
  64        64   981     547.7 
  65        65   982     506.8 
  66        66   982     513.9 
  67        67   981     521.9 
  68        68   981     548.1 
  69        69   981     519.5 
  70        70   983     535.1 
  71        71   980     531.3 
  72        72   981     575.6 
  73        73   981     513.4 
  74        74   982     520.4 
  75        75   981     526.3 
  76        76   980     587.4 
  77        77   980     571.1 
  78        78   982     516.0 
  79        79   982     488.8 
  80        80   980     553.7 
  81        81   981     547.7 
  82        82   980     542.2 
  83        83   982     512.6 
  84        84   980     525.5 
  85        85   980     565.3 
  86        86   980     540.8 
  87        87   982     527.2 
  88        88   981     495.8 
  89        89   980     523.8 
  90        90   981     531.8 
  91        91   981     525.0 
  92        92   982     510.5 
  93        93   980     525.9 
  94        94   980     566.7 
  95        95   980     515.0 
  96        96   982     477.9 
  97        97   981     492.7 
  98        98   980     534.7 
  99        99   980     528.9 
 100       100   980     515.6 
 101       101   981     496.8 
 102       102   980     528.2 
 103       103   980     544.9 
 104       104   980     523.5 
 105       105   982     489.5 
 106       106   980     508.5 
 107       107   980     513.9 
 108       108   980     526.2 
 109       109   981     499.2 
 110       110   980     508.8 
 111       111   980     517.0 
 112       112   980     519.7 
 113       113   980     510.9 
 114       114   981     468.2 
 115       115   980     535.0 
 116       116   980     525.5 
 117       117   980     517.3 
 118       118   980     484.4 
 119       119   980     508.8 
 120       120   979     518.9 
 121       121   980     515.0 
 122       122   980     504.8 
 123       123   981     498.8 
 124       124   979     497.4 
 125       125   980     508.2 
 126       126   980     537.8 
 127       127   981     475.0 
 128       128   980     521.4 
 129       129   979     528.4 
 130       130   979     496.8 
 131       131   980     489.8 
 132       132   980     495.9 
 133       133   979     525.7 
 134       134   979     504.6 
 135       135   979     518.9 
 136       136   980     485.0 
 137       137   979     489.3 
 138       138   979     537.3 
 139       139   979     483.8 
 140       140   980     492.2 
 141       141   980     500.7 
 142       142   978     524.2 
 143       143   980     514.6 
 144       144   979     529.5 
 145       145   980     484.7 
 146       146   978     529.7 
 147       147   979     523.3 
 148       148   979     478.7 
 149       149   979     511.4 
 150       150   979     511.4 
 151       210  1000     566.3 
 152       270   997     463.7 
 153       330  1000     488.7 
 154       390   996     552.5 
 155       450   996     527.4 
 156       510   996     426.0 
 157       570   994     561.7 
 158       630   998     562.8 
 159       810   983     557.1 
 160       990   980     473.1 
 161      1170   985     529.9 
 162      1350   986     484.1 
 163      1530   981     476.7 
 164      2070   980     596.6 
 165      2691   973     539.6 
 166      3405   978     495.2 
 167      4226   978     517.0 
 168      5170   976     456.6 
 169      6256   975     521.4 
 170      7505   974     436.7 
 171      8941   977     439.4 
 172     10592   975     501.5 
 173     12491   973     531.7 
 174     14675   979     428.3 
 175     17187   975     438.3 
 176     20076   974     469.2 
 177     23398   977     427.2 
 178     27218   979     435.5 
 179     31611   980     394.6 
 180     36663   980     344.9 
 181     42473   977     409.8 
 182     49155   978     436.9 
 183     56839   980     341.2 
 184     65676   977     400.9 
 185     75839   981     400.9 
