PC/104 FIRe Fluorometer 2.0.0
 4/ 8/2025     39913
LED Color:           blue
Gain:               1900
Sample Delay (msec):    10
Number Samples:   3
STF (usec):      150
STRP (#samples):       35
STRI (usec):       60
MTF (ms):        0
MTF (#samples):     0
MTRP (#samples):        0
MTRI (usec):      100
PQLen:     4
Ambient Light Source Power: Off
PAR (uMol/m^2/s):900.00
Comment:
Depth(m):  -2.0
Temperature(C):  75.7
Battery(V):  14.07

         Time    EX   Fl-Yield 
DATA--------------------------
   0         0     0       0.0 
   1         1   156     160.3 
   2         2   817     205.6 
   3         3   953     248.7 
   4         4   969     261.1 
   5         5   972     238.0 
   6         6   973     263.8 
   7         7   973     248.7 
   8         8   977     266.1 
   9         9   974     265.2 
  10        10   975     265.3 
  11        11   976     273.6 
  12        12   977     274.3 
  13        13   977     293.1 
  14        14   977     279.4 
  15        15   977     292.7 
  16        16   978     295.5 
  17        17   980     298.3 
  18        18   977     274.7 
  19        19   978     315.3 
  20        20   979     345.3 
  21        21   980     294.2 
  22        22   979     289.8 
  23        23   979     309.2 
  24        24   979     326.2 
  25        25   980     324.5 
  26        26   980     336.7 
  27        27   978     301.3 
  28        28   980     342.2 
  29        29   980     327.2 
  30        30   980     314.6 
  31        31   980     343.5 
  32        32   980     348.3 
  33        33   980     370.7 
  34        34   981     361.5 
  35        35   981     317.7 
  36        36   980     350.0 
  37        37   981     368.0 
  38        38   980     392.2 
  39        39   981     352.7 
  40        40   980     375.2 
  41        41   981     355.4 
  42        42   980     338.4 
  43        43   982     331.3 
  44        44   981     352.7 
  45        45   980     353.1 
  46        46   981     401.0 
  47        47   982     376.4 
  48        48   982     342.8 
  49        49   981     349.0 
  50        50   981     380.9 
  51        51   980     384.4 
  52        52   983     373.3 
  53        53   981     347.3 
  54        54   981     367.7 
  55        55   981     356.1 
  56        56   982     412.8 
  57        57   982     361.2 
  58        58   981     342.5 
  59        59   981     346.6 
  60        60   980     375.5 
  61        61   983     334.0 
  62        62   981     351.7 
  63        63   981     378.5 
  64        64   981     373.4 
  65        65   982     364.9 
  66        66   982     374.4 
  67        67   981     356.4 
  68        68   981     386.0 
  69        69   981     380.9 
  70        70   983     323.2 
  71        71   980     339.8 
  72        72   981     398.9 
  73        73   981     367.7 
  74        74   982     357.4 
  75        75   981     387.7 
  76        76   980     345.2 
  77        77   980     388.8 
  78        78   982     343.9 
  79        79   982     375.4 
  80        80   980     373.8 
  81        81   981     377.5 
  82        82   980     348.6 
  83        83   982     352.3 
  84        84   980     381.6 
  85        85   980     387.8 
  86        86   980     387.4 
  87        87   982     325.5 
  88        88   981     333.3 
  89        89   980     376.2 
  90        90   981     362.9 
  91        91   981     394.8 
  92        92   982     381.2 
  93        93   980     372.1 
  94        94   980     401.4 
  95        95   980     388.1 
  96        96   982     360.5 
  97        97   981     387.7 
  98        98   980     384.0 
  99        99   980     380.3 
 100       100   980     360.5 
 101       101   981     384.6 
 102       102   980     386.1 
 103       103   980     378.9 
 104       104   980     361.6 
 105       105   982     333.0 
 106       106   980     358.8 
 107       107   980     353.4 
 108       108   980     405.8 
 109       109   981     380.9 
 110       110   980     396.9 
 111       111   980     357.8 
 112       112   980     391.5 
 113       113   980     379.9 
 114       114   981     395.5 
 115       115   980     342.2 
 116       116   980     413.6 
 117       117   980     387.4 
 118       118   980     413.6 
 119       119   980     411.9 
 120       120   979     408.6 
 121       121   980     414.6 
 122       122   980     373.5 
 123       123   981     380.2 
 124       124   979     411.6 
 125       125   980     426.9 
 126       126   980     369.4 
 127       127   981     404.7 
 128       128   980     429.9 
 129       129   979     422.2 
 130       130   979     396.3 
 131       131   980     399.0 
 132       132   980     398.6 
 133       133   979     396.7 
 134       134   979     435.1 
 135       135   979     387.8 
 136       136   980     423.5 
 137       137   979     418.8 
 138       138   979     412.7 
 139       139   979     393.6 
 140       140   980     390.8 
 141       141   980     423.5 
 142       142   978     385.8 
 143       143   980     415.3 
 144       144   979     405.9 
 145       145   980     414.3 
 146       146   978     381.7 
 147       147   979     389.9 
 148       148   979     388.8 
 149       149   979     384.7 
 150       150   979     384.7 
 151       210  1000     305.0 
 152       270   997     336.7 
 153       330  1000     442.0 
 154       390   996     335.3 
 155       450   996     349.1 
 156       510   996     410.0 
 157       570   994     358.5 
 158       630   998     366.1 
 159       810   983     372.0 
 160       990   980     346.3 
 161      1170   985     317.8 
 162      1350   986     355.6 
 163      1530   981     229.4 
 164      2070   980     301.7 
 165      2691   973     249.4 
 166      3405   978     304.0 
 167      4226   978     303.7 
 168      5170   976     328.6 
 169      6256   975     300.2 
 170      7505   974     343.6 
 171      8941   977     321.7 
 172     10592   975     303.9 
 173     12491   973     300.8 
 174     14675   979     321.1 
 175     17187   975     294.0 
 176     20076   974     316.6 
 177     23398   977     276.0 
 178     27218   979     244.5 
 179     31611   980     275.9 
 180     36663   980     238.4 
 181     42473   977     268.9 
 182     49155   978     201.4 
 183     56839   980     231.0 
 184     65676   977     292.7 
 185     75839   981     292.7 
   1         1   156     181.6 
   2         2   817     418.6 
   3         3   953     455.1 
   4         4   969     410.4 
   5         5   972     415.0 
   6         6   973     415.2 
   7         7   973     490.2 
   8         8   977     481.7 
   9         9   974     425.7 
  10        10   975     500.9 
  11        11   976     548.2 
  12        12   977     560.9 
  13        13   977     559.9 
  14        14   977     554.8 
  15        15   977     535.3 
  16        16   978     574.3 
  17        17   980     541.5 
  18        18   977     513.5 
  19        19   978     513.3 
  20        20   979     554.0 
  21        21   980     569.0 
  22        22   979     504.6 
  23        23   979     488.3 
  24        24   979     532.9 
  25        25   980     517.0 
  26        26   980     488.4 
  27        27   978     491.8 
  28        28   980     487.4 
  29        29   980     527.9 
  30        30   980     502.4 
  31        31   980     490.8 
  32        32   980     480.3 
  33        33   980     505.8 
  34        34   981     496.4 
  35        35   981     467.9 
  36        36   980     494.9 
  37        37   981     485.2 
  38        38   980     533.3 
  39        39   981     536.5 
  40        40   980     512.2 
  41        41   981     482.8 
  42        42   980     540.1 
  43        43   982     530.5 
  44        44   981     480.1 
  45        45   980     525.2 
  46        46   981     508.3 
  47        47   982     567.9 
  48        48   982     493.2 
  49        49   981     489.0 
  50        50   981     486.6 
  51        51   980     537.8 
  52        52   983     505.6 
  53        53   981     508.7 
  54        54   981     492.7 
  55        55   981     528.7 
  56        56   982     536.3 
  57        57   982     527.5 
  58        58   981     507.6 
  59        59   981     519.5 
  60        60   980     559.2 
  61        61   983     515.1 
  62        62   981     517.2 
  63        63   981     496.8 
  64        64   981     539.2 
  65        65   982     508.8 
  66        66   982     493.2 
  67        67   981     477.4 
  68        68   981     514.4 
  69        69   981     529.4 
  70        70   983     500.8 
  71        71   980     483.3 
  72        72   981     516.1 
  73        73   981     498.8 
  74        74   982     478.3 
  75        75   981     480.8 
  76        76   980     474.8 
  77        77   980     522.4 
  78        78   982     504.1 
  79        79   982     482.7 
  80        80   980     458.5 
  81        81   981     513.4 
  82        82   980     530.3 
  83        83   982     497.6 
  84        84   980     438.1 
  85        85   980     494.6 
  86        86   980     523.5 
  87        87   982     472.8 
  88        88   981     442.7 
  89        89   980     492.5 
  90        90   981     527.7 
  91        91   981     467.9 
  92        92   982     465.7 
  93        93   980     470.4 
  94        94   980     488.8 
  95        95   980     519.7 
  96        96   982     488.8 
  97        97   981     460.8 
  98        98   980     472.8 
  99        99   980     526.5 
 100       100   980     446.6 
 101       101   981     454.3 
 102       102   980     471.4 
 103       103   980     456.1 
 104       104   980     478.9 
 105       105   982     442.3 
 106       106   980     436.7 
 107       107   980     453.4 
 108       108   980     513.3 
 109       109   981     446.8 
 110       110   980     432.3 
 111       111   980     428.9 
 112       112   980     465.3 
 113       113   980     447.6 
 114       114   981     431.2 
 115       115   980     485.4 
 116       116   980     506.5 
 117       117   980     472.8 
 118       118   980     442.9 
 119       119   980     444.9 
 120       120   979     515.5 
 121       121   980     495.6 
 122       122   980     432.7 
 123       123   981     456.0 
 124       124   979     463.7 
 125       125   980     478.6 
 126       126   980     491.2 
 127       127   981     443.1 
 128       128   980     483.7 
 129       129   979     504.9 
 130       130   979     548.5 
 131       131   980     484.0 
 132       132   980     500.0 
 133       133   979     488.9 
 134       134   979     492.0 
 135       135   979     544.4 
 136       136   980     461.6 
 137       137   979     508.3 
 138       138   979     533.2 
 139       139   979     528.8 
 140       140   980     496.6 
 141       141   980     506.1 
 142       142   978     508.5 
 143       143   980     554.1 
 144       144   979     480.4 
 145       145   980     495.9 
 146       146   978     476.1 
 147       147   979     552.6 
 148       148   979     490.0 
 149       149   979     548.9 
 150       150   979     548.9 
 151       210  1000     447.7 
 152       270   997     486.8 
 153       330  1000     411.7 
 154       390   996     595.4 
 155       450   996     525.4 
 156       510   996     488.0 
 157       570   994     359.5 
 158       630   998     491.0 
 159       810   983     450.0 
 160       990   980     513.9 
 161      1170   985     446.0 
 162      1350   986     445.2 
 163      1530   981     597.7 
 164      2070   980     510.5 
 165      2691   973     485.8 
 166      3405   978     448.2 
 167      4226   978     413.8 
 168      5170   976     470.3 
 169      6256   975     382.9 
 170      7505   974     357.6 
 171      8941   977     310.1 
 172     10592   975     386.0 
 173     12491   973     332.6 
 174     14675   979     438.2 
 175     17187   975     440.7 
 176     20076   974     349.4 
 177     23398   977     410.8 
 178     27218   979     402.5 
 179     31611   980     192.9 
 180     36663   980     308.2 
 181     42473   977     259.6 
 182     49155   978     455.0 
 183     56839   980     348.6 
 184     65676   977     284.9 
 185     75839   981     284.9 
