PC/104 FIRe Fluorometer 2.0.0
 4/ 8/2025     29367
LED Color:           blue
Gain:               1900
Sample Delay (msec):    10
Number Samples:   3
STF (usec):      150
STRP (#samples):       35
STRI (usec):       60
MTF (ms):        0
MTF (#samples):     0
MTRP (#samples):        0
MTRI (usec):      100
PQLen:     4
Ambient Light Source Power: Off
PAR (uMol/m^2/s):796.75
Comment:
Depth(m):   3.3
Temperature(C):  52.1
Battery(V):  16.02

         Time    EX   Fl-Yield 
DATA--------------------------
   0         0     0       0.0 
   1         1   156       0.0 
   2         2   817     203.6 
   3         3   953     245.2 
   4         4   969     188.9 
   5         5   972     239.7 
   6         6   973     241.5 
   7         7   973     209.0 
   8         8   977     203.0 
   9         9   974     245.4 
  10        10   975     240.3 
  11        11   976     260.2 
  12        12   977     218.0 
  13        13   977     262.4 
  14        14   977     232.7 
  15        15   977     247.4 
  16        16   978     274.0 
  17        17   980     221.4 
  18        18   977     269.9 
  19        19   978     304.4 
  20        20   979     245.8 
  21        21   980     240.1 
  22        22   979     246.9 
  23        23   979     304.1 
  24        24   979     293.5 
  25        25   980     212.6 
  26        26   980     227.6 
  27        27   978     242.3 
  28        28   980     335.4 
  29        29   980     287.1 
  30        30   980     178.9 
  31        31   980     234.7 
  32        32   980     300.3 
  33        33   980     270.7 
  34        34   981     299.0 
  35        35   981     285.4 
  36        36   980     261.2 
  37        37   981     300.4 
  38        38   980     305.8 
  39        39   981     239.9 
  40        40   980     260.5 
  41        41   981     294.3 
  42        42   980     292.5 
  43        43   982     223.4 
  44        44   981     283.0 
  45        45   980     293.5 
  46        46   981     322.8 
  47        47   982     300.1 
  48        48   982     237.9 
  49        49   981     220.5 
  50        50   981     297.0 
  51        51   980     272.8 
  52        52   983     284.2 
  53        53   981     236.2 
  54        54   981     276.6 
  55        55   981     356.1 
  56        56   982     255.6 
  57        57   982     292.3 
  58        58   981     267.1 
  59        59   981     310.6 
  60        60   980     304.4 
  61        61   983     285.9 
  62        62   981     252.8 
  63        63   981     298.3 
  64        64   981     325.9 
  65        65   982     253.6 
  66        66   982     246.1 
  67        67   981     290.9 
  68        68   981     330.3 
  69        69   981     315.0 
  70        70   983     273.7 
  71        71   980     258.8 
  72        72   981     314.0 
  73        73   981     309.9 
  74        74   982     249.8 
  75        75   981     266.7 
  76        76   980     302.4 
  77        77   980     305.1 
  78        78   982     277.0 
  79        79   982     304.5 
  80        80   980     255.4 
  81        81   981     321.1 
  82        82   980     287.1 
  83        83   982     255.9 
  84        84   980     240.1 
  85        85   980     250.7 
  86        86   980     323.1 
  87        87   982     279.0 
  88        88   981     270.1 
  89        89   980     259.2 
  90        90   981     317.0 
  91        91   981     325.5 
  92        92   982     270.9 
  93        93   980     260.5 
  94        94   980     291.5 
  95        95   980     339.5 
  96        96   982     317.4 
  97        97   981     234.8 
  98        98   980     260.2 
  99        99   980     318.4 
 100       100   980     264.6 
 101       101   981     281.7 
 102       102   980     273.5 
 103       103   980     279.3 
 104       104   980     275.9 
 105       105   982     266.5 
 106       106   980     249.3 
 107       107   980     270.1 
 108       108   980     317.0 
 109       109   981     276.6 
 110       110   980     269.4 
 111       111   980     225.9 
 112       112   980     254.1 
 113       113   980     273.8 
 114       114   981     254.8 
 115       115   980     228.9 
 116       116   980     276.2 
 117       117   980     281.0 
 118       118   980     290.8 
 119       119   980     208.8 
 120       120   979     224.0 
 121       121   980     284.4 
 122       122   980     307.5 
 123       123   981     300.0 
 124       124   979     201.9 
 125       125   980     271.4 
 126       126   980     319.7 
 127       127   981     317.4 
 128       128   980     227.2 
 129       129   979     287.7 
 130       130   979     284.0 
 131       131   980     313.3 
 132       132   980     246.3 
 133       133   979     309.2 
 134       134   979     272.0 
 135       135   979     312.9 
 136       136   980     282.7 
 137       137   979     244.1 
 138       138   979     283.6 
 139       139   979     328.9 
 140       140   980     297.6 
 141       141   980     297.6 
 142       142   978     282.2 
 143       143   980     293.5 
 144       144   979     295.5 
 145       145   980     283.0 
 146       146   978     273.7 
 147       147   979     288.4 
 148       148   979     280.6 
 149       149   979     250.3 
 150       150   979     250.3 
 151       210  1000     224.7 
 152       270   997     207.3 
 153       330  1000     336.3 
 154       390   996     172.0 
 155       450   996     279.5 
 156       510   996     179.4 
 157       570   994     369.2 
 158       630   998     239.8 
 159       810   983     205.2 
 160       990   980     240.8 
 161      1170   985     178.3 
 162      1350   986     198.4 
 163      1530   981     265.4 
 164      2070   980     159.5 
 165      2691   973     139.4 
 166      3405   978     213.0 
 167      4226   978     180.3 
 168      5170   976     264.7 
 169      6256   975     184.3 
 170      7505   974     187.2 
 171      8941   977     174.0 
 172     10592   975     187.7 
 173     12491   973     196.6 
 174     14675   979     227.4 
 175     17187   975     234.2 
 176     20076   974     220.4 
 177     23398   977     195.8 
 178     27218   979     197.8 
 179     31611   980     203.4 
 180     36663   980     178.9 
 181     42473   977     314.6 
 182     49155   978     280.8 
 183     56839   980     125.9 
 184     65676   977     330.3 
 185     75839   981     330.3 
   1         1   156     119.7 
   2         2   817     237.5 
   3         3   953     224.2 
   4         4   969     286.9 
   5         5   972     304.2 
   6         6   973     241.5 
   7         7   973     253.2 
   8         8   977     292.4 
   9         9   974     351.8 
  10        10   975     354.2 
  11        11   976     368.9 
  12        12   977     362.3 
  13        13   977     425.1 
  14        14   977     402.3 
  15        15   977     364.0 
  16        16   978     397.8 
  17        17   980     376.9 
  18        18   977     419.7 
  19        19   978     332.3 
  20        20   979     325.5 
  21        21   980     326.5 
  22        22   979     323.5 
  23        23   979     340.1 
  24        24   979     288.4 
  25        25   980     292.2 
  26        26   980     256.1 
  27        27   978     297.5 
  28        28   980     303.7 
  29        29   980     292.5 
  30        30   980     287.1 
  31        31   980     275.5 
  32        32   980     288.1 
  33        33   980     274.5 
  34        34   981     332.0 
  35        35   981     293.2 
  36        36   980     317.0 
  37        37   981     304.1 
  38        38   980     306.5 
  39        39   981     296.6 
  40        40   980     350.7 
  41        41   981     306.2 
  42        42   980     268.7 
  43        43   982     306.9 
  44        44   981     284.4 
  45        45   980     345.6 
  46        46   981     307.5 
  47        47   982     270.5 
  48        48   982     285.8 
  49        49   981     349.0 
  50        50   981     327.9 
  51        51   980     334.4 
  52        52   983     347.9 
  53        53   981     332.3 
  54        54   981     376.1 
  55        55   981     304.1 
  56        56   982     355.1 
  57        57   982     336.4 
  58        58   981     347.3 
  59        59   981     355.8 
  60        60   980     336.4 
  61        61   983     316.7 
  62        62   981     342.5 
  63        63   981     390.1 
  64        64   981     330.3 
  65        65   982     339.4 
  66        66   982     305.2 
  67        67   981     359.5 
  68        68   981     384.0 
  69        69   981     313.3 
  70        70   983     300.1 
  71        71   980     375.9 
  72        72   981     354.7 
  73        73   981     310.2 
  74        74   982     339.4 
  75        75   981     320.1 
  76        76   980     336.1 
  77        77   980     335.4 
  78        78   982     300.1 
  79        79   982     316.0 
  80        80   980     375.5 
  81        81   981     395.9 
  82        82   980     284.4 
  83        83   982     329.9 
  84        84   980     390.5 
  85        85   980     415.3 
  86        86   980     346.6 
  87        87   982     355.1 
  88        88   981     393.1 
  89        89   980     377.2 
  90        90   981     374.8 
  91        91   981     338.4 
  92        92   982     338.8 
  93        93   980     345.9 
  94        94   980     398.0 
  95        95   980     348.6 
  96        96   982     329.9 
  97        97   981     356.4 
  98        98   980     386.1 
  99        99   980     404.4 
 100       100   980     345.6 
 101       101   981     336.7 
 102       102   980     370.7 
 103       103   980     369.7 
 104       104   980     354.8 
 105       105   982     310.6 
 106       106   980     358.8 
 107       107   980     371.1 
 108       108   980     361.2 
 109       109   981     323.1 
 110       110   980     310.9 
 111       111   980     381.0 
 112       112   980     339.5 
 113       113   980     318.7 
 114       114   981     314.0 
 115       115   980     301.0 
 116       116   980     382.7 
 117       117   980     349.3 
 118       118   980     299.7 
 119       119   980     308.8 
 120       120   979     340.5 
 121       121   980     323.1 
 122       122   980     322.1 
 123       123   981     271.8 
 124       124   979     305.8 
 125       125   980     352.0 
 126       126   980     354.4 
 127       127   981     293.9 
 128       128   980     294.2 
 129       129   979     310.9 
 130       130   979     345.3 
 131       131   980     283.7 
 132       132   980     286.7 
 133       133   979     322.4 
 134       134   979     382.4 
 135       135   979     302.0 
 136       136   980     290.5 
 137       137   979     309.2 
 138       138   979     350.7 
 139       139   979     361.3 
 140       140   980     296.3 
 141       141   980     292.9 
 142       142   978     335.7 
 143       143   980     376.9 
 144       144   979     316.0 
 145       145   980     313.9 
 146       146   978     288.0 
 147       147   979     335.7 
 148       148   979     322.1 
 149       149   979     335.7 
 150       150   979     335.7 
 151       210  1000     344.0 
 152       270   997     417.9 
 153       330  1000     259.0 
 154       390   996     414.0 
 155       450   996     300.2 
 156       510   996     384.5 
 157       570   994     384.3 
 158       630   998     320.0 
 159       810   983     404.5 
 160       990   980     201.7 
 161      1170   985     426.7 
 162      1350   986     350.2 
 163      1530   981     286.8 
 164      2070   980     349.3 
 165      2691   973     440.9 
 166      3405   978     251.9 
 167      4226   978     294.5 
 168      5170   976     303.3 
 169      6256   975     328.9 
 170      7505   974     396.6 
 171      8941   977     382.5 
 172     10592   975     192.5 
 173     12491   973     230.9 
 174     14675   979     316.0 
 175     17187   975     265.0 
 176     20076   974     192.3 
 177     23398   977     122.1 
 178     27218   979     332.0 
 179     31611   980     191.2 
 180     36663   980     340.8 
 181     42473   977     352.1 
 182     49155   978     219.5 
 183     56839   980     340.8 
 184     65676   977     140.6 
 185     75839   981     140.6 
