PC/104 FIRe Fluorometer 2.0.0
 4/ 8/2025     33334
LED Color:           blue
Gain:               1700
Sample Delay (msec):    10
Number Samples:   3
STF (usec):      150
STRP (#samples):       35
STRI (usec):       60
MTF (ms):        0
MTF (#samples):     0
MTRP (#samples):        0
MTRI (usec):      100
PQLen:     4
Ambient Light Source Power: Off
PAR (uMol/m^2/s):245.00
Comment:
Depth(m):   2.0
Temperature(C):  66.4
Battery(V):  15.13

         Time    EX   Fl-Yield 
DATA--------------------------
   0         0     0       0.0 
   1         1   156     175.2 
   2         2   817     269.3 
   3         3   953     277.4 
   4         4   969     283.5 
   5         5   972     302.8 
   6         6   973     316.5 
   7         7   973     293.6 
   8         8   977     299.9 
   9         9   974     319.3 
  10        10   975     351.5 
  11        11   976     328.2 
  12        12   977     283.9 
  13        13   977     315.6 
  14        14   977     342.9 
  15        15   977     361.0 
  16        16   978     329.6 
  17        17   980     324.8 
  18        18   977     354.5 
  19        19   978     367.1 
  20        20   979     319.0 
  21        21   980     334.4 
  22        22   979     348.7 
  23        23   979     369.4 
  24        24   979     337.1 
  25        25   980     343.2 
  26        26   980     337.4 
  27        27   978     363.7 
  28        28   980     375.2 
  29        29   980     355.4 
  30        30   980     318.0 
  31        31   980     357.8 
  32        32   980     372.8 
  33        33   980     363.6 
  34        34   981     328.6 
  35        35   981     345.2 
  36        36   980     391.5 
  37        37   981     370.7 
  38        38   980     338.1 
  39        39   981     354.4 
  40        40   980     363.6 
  41        41   981     376.5 
  42        42   980     376.5 
  43        43   982     381.9 
  44        44   981     364.9 
  45        45   980     390.5 
  46        46   981     378.9 
  47        47   982     356.1 
  48        48   982     366.3 
  49        49   981     390.4 
  50        50   981     409.4 
  51        51   980     397.6 
  52        52   983     393.7 
  53        53   981     380.9 
  54        54   981     393.5 
  55        55   981     384.6 
  56        56   982     403.3 
  57        57   982     368.0 
  58        58   981     403.7 
  59        59   981     376.8 
  60        60   980     368.0 
  61        61   983     376.1 
  62        62   981     399.6 
  63        63   981     431.9 
  64        64   981     370.7 
  65        65   982     372.4 
  66        66   982     375.8 
  67        67   981     397.6 
  68        68   981     391.8 
  69        69   981     362.2 
  70        70   983     368.3 
  71        71   980     377.9 
  72        72   981     392.1 
  73        73   981     378.9 
  74        74   982     356.8 
  75        75   981     369.0 
  76        76   980     408.2 
  77        77   980     397.3 
  78        78   982     377.5 
  79        79   982     352.7 
  80        80   980     377.6 
  81        81   981     389.4 
  82        82   980     377.9 
  83        83   982     394.1 
  84        84   980     378.2 
  85        85   980     410.2 
  86        86   980     357.8 
  87        87   982     357.4 
  88        88   981     345.9 
  89        89   980     391.8 
  90        90   981     396.9 
  91        91   981     369.4 
  92        92   982     367.6 
  93        93   980     393.5 
  94        94   980     395.9 
  95        95   980     367.7 
  96        96   982     361.5 
  97        97   981     368.7 
  98        98   980     388.8 
  99        99   980     381.0 
 100       100   980     356.8 
 101       101   981     391.1 
 102       102   980     376.9 
 103       103   980     388.1 
 104       104   980     364.6 
 105       105   982     349.6 
 106       106   980     383.7 
 107       107   980     405.8 
 108       108   980     381.3 
 109       109   981     346.6 
 110       110   980     362.2 
 111       111   980     393.9 
 112       112   980     375.9 
 113       113   980     337.8 
 114       114   981     379.9 
 115       115   980     355.1 
 116       116   980     398.0 
 117       117   980     403.4 
 118       118   980     363.3 
 119       119   980     367.7 
 120       120   979     380.0 
 121       121   980     391.5 
 122       122   980     360.9 
 123       123   981     340.1 
 124       124   979     387.1 
 125       125   980     400.3 
 126       126   980     363.9 
 127       127   981     354.1 
 128       128   980     352.7 
 129       129   979     392.2 
 130       130   979     388.8 
 131       131   980     342.5 
 132       132   980     362.6 
 133       133   979     394.3 
 134       134   979     378.6 
 135       135   979     343.9 
 136       136   980     361.6 
 137       137   979     370.8 
 138       138   979     396.7 
 139       139   979     361.3 
 140       140   980     346.3 
 141       141   980     378.9 
 142       142   978     386.8 
 143       143   980     369.7 
 144       144   979     359.2 
 145       145   980     351.0 
 146       146   978     350.7 
 147       147   979     405.2 
 148       148   979     384.1 
 149       149   979     373.5 
 150       150   979     373.5 
 151       210  1000     384.7 
 152       270   997     376.1 
 153       330  1000     364.0 
 154       390   996     317.6 
 155       450   996     386.2 
 156       510   996     325.0 
 157       570   994     415.2 
 158       630   998     263.9 
 159       810   983     336.0 
 160       990   980     422.1 
 161      1170   985     335.7 
 162      1350   986     286.0 
 163      1530   981     432.2 
 164      2070   980     400.7 
 165      2691   973     296.0 
 166      3405   978     388.2 
 167      4226   978     279.1 
 168      5170   976     402.3 
 169      6256   975     274.2 
 170      7505   974     311.4 
 171      8941   977     290.0 
 172     10592   975     321.4 
 173     12491   973     348.4 
 174     14675   979     309.8 
 175     17187   975     294.7 
 176     20076   974     246.4 
 177     23398   977     273.6 
 178     27218   979     363.6 
 179     31611   980     427.2 
 180     36663   980     402.7 
 181     42473   977     230.6 
 182     49155   978     322.4 
 183     56839   980     347.6 
 184     65676   977     300.6 
 185     75839   981     300.6 
   1         1   156     314.1 
   2         2   817     391.3 
   3         3   953     428.8 
   4         4   969     427.6 
   5         5   972     394.0 
   6         6   973     371.7 
   7         7   973     420.7 
   8         8   977     443.9 
   9         9   974     418.9 
  10        10   975     404.4 
  11        11   976     434.4 
  12        12   977     456.5 
  13        13   977     419.0 
  14        14   977     434.7 
  15        15   977     404.0 
  16        16   978     461.8 
  17        17   980     476.2 
  18        18   977     428.9 
  19        19   978     427.7 
  20        20   979     411.0 
  21        21   980     431.3 
  22        22   979     428.7 
  23        23   979     418.8 
  24        24   979     440.2 
  25        25   980     411.9 
  26        26   980     402.7 
  27        27   978     410.7 
  28        28   980     382.3 
  29        29   980     422.1 
  30        30   980     440.1 
  31        31   980     408.8 
  32        32   980     399.0 
  33        33   980     393.5 
  34        34   981     435.6 
  35        35   981     458.0 
  36        36   980     402.0 
  37        37   981     401.3 
  38        38   980     415.0 
  39        39   981     436.3 
  40        40   980     413.6 
  41        41   981     391.1 
  42        42   980     414.6 
  43        43   982     437.2 
  44        44   981     397.6 
  45        45   980     407.5 
  46        46   981     420.7 
  47        47   982     436.5 
  48        48   982     443.0 
  49        49   981     422.4 
  50        50   981     420.7 
  51        51   980     420.7 
  52        52   983     435.4 
  53        53   981     423.4 
  54        54   981     416.9 
  55        55   981     429.8 
  56        56   982     420.2 
  57        57   982     439.9 
  58        58   981     435.9 
  59        59   981     406.7 
  60        60   980     419.7 
  61        61   983     422.9 
  62        62   981     434.9 
  63        63   981     428.5 
  64        64   981     417.9 
  65        65   982     433.1 
  66        66   982     452.5 
  67        67   981     416.9 
  68        68   981     431.2 
  69        69   981     417.3 
  70        70   983     454.4 
  71        71   980     432.3 
  72        72   981     446.5 
  73        73   981     429.5 
  74        74   982     444.7 
  75        75   981     459.1 
  76        76   980     444.2 
  77        77   980     454.8 
  78        78   982     462.7 
  79        79   982     455.9 
  80        80   980     419.7 
  81        81   981     440.7 
  82        82   980     449.0 
  83        83   982     451.5 
  84        84   980     422.8 
  85        85   980     434.7 
  86        86   980     417.3 
  87        87   982     448.4 
  88        88   981     458.0 
  89        89   980     437.4 
  90        90   981     414.5 
  91        91   981     424.7 
  92        92   982     477.3 
  93        93   980     466.0 
  94        94   980     424.8 
  95        95   980     444.9 
  96        96   982     423.6 
  97        97   981     463.1 
  98        98   980     443.9 
  99        99   980     405.1 
 100       100   980     432.7 
 101       101   981     464.5 
 102       102   980     416.3 
 103       103   980     415.3 
 104       104   980     439.1 
 105       105   982     440.9 
 106       106   980     434.4 
 107       107   980     424.5 
 108       108   980     409.2 
 109       109   981     439.0 
 110       110   980     458.8 
 111       111   980     422.4 
 112       112   980     419.0 
 113       113   980     429.3 
 114       114   981     427.5 
 115       115   980     433.0 
 116       116   980     444.9 
 117       117   980     442.2 
 118       118   980     446.6 
 119       119   980     448.6 
 120       120   979     407.6 
 121       121   980     416.0 
 122       122   980     438.1 
 123       123   981     438.3 
 124       124   979     446.4 
 125       125   980     423.5 
 126       126   980     420.1 
 127       127   981     444.4 
 128       128   980     483.3 
 129       129   979     399.0 
 130       130   979     402.5 
 131       131   980     435.7 
 132       132   980     452.0 
 133       133   979     464.1 
 134       134   979     443.6 
 135       135   979     430.7 
 136       136   980     442.5 
 137       137   979     433.4 
 138       138   979     416.8 
 139       139   979     427.0 
 140       140   980     454.1 
 141       141   980     445.6 
 142       142   978     444.4 
 143       143   980     411.6 
 144       144   979     425.9 
 145       145   980     448.3 
 146       146   978     453.3 
 147       147   979     400.7 
 148       148   979     412.7 
 149       149   979     417.4 
 150       150   979     417.4 
 151       210  1000     420.3 
 152       270   997     362.8 
 153       330  1000     462.0 
 154       390   996     437.4 
 155       450   996     469.2 
 156       510   996     437.1 
 157       570   994     444.0 
 158       630   998     486.6 
 159       810   983     427.6 
 160       990   980     416.3 
 161      1170   985     461.6 
 162      1350   986     432.0 
 163      1530   981     413.5 
 164      2070   980     384.4 
 165      2691   973     495.0 
 166      3405   978     418.9 
 167      4226   978     395.7 
 168      5170   976     440.2 
 169      6256   975     359.3 
 170      7505   974     486.0 
 171      8941   977     409.1 
 172     10592   975     412.6 
 173     12491   973     448.4 
 174     14675   979     342.2 
 175     17187   975     368.2 
 176     20076   974     355.9 
 177     23398   977     373.3 
 178     27218   979     377.9 
 179     31611   980     405.4 
 180     36663   980     358.5 
 181     42473   977     412.1 
 182     49155   978     374.2 
 183     56839   980     356.5 
 184     65676   977     390.0 
 185     75839   981     390.0 
