PC/104 FIRe Fluorometer 2.0.0
 4/ 8/2025     39710
LED Color:           blue
Gain:               2000
Sample Delay (msec):    10
Number Samples:   3
STF (usec):      150
STRP (#samples):       35
STRI (usec):       60
MTF (ms):        0
MTF (#samples):     0
MTRP (#samples):        0
MTRI (usec):      100
PQLen:     4
Ambient Light Source Power: Off
PAR (uMol/m^2/s):319.58
Comment:
Depth(m):  -1.9
Temperature(C):  75.5
Battery(V):  14.09

         Time    EX   Fl-Yield 
DATA--------------------------
   0         0     0       0.0 
   1         1   156      38.5 
   2         2   817     211.8 
   3         3   953     231.9 
   4         4   969     225.3 
   5         5   972     247.9 
   6         6   973     241.5 
   7         7   973     229.5 
   8         8   977     220.7 
   9         9   974     327.5 
  10        10   975     207.9 
  11        11   976     229.8 
  12        12   977     267.1 
  13        13   977     279.1 
  14        14   977     227.6 
  15        15   977     261.0 
  16        16   978     269.3 
  17        17   980     254.8 
  18        18   977     297.2 
  19        19   978     243.7 
  20        20   979     242.4 
  21        21   980     274.8 
  22        22   979     310.2 
  23        23   979     239.7 
  24        24   979     246.2 
  25        25   980     311.6 
  26        26   980     268.4 
  27        27   978     274.7 
  28        28   980     262.9 
  29        29   980     282.0 
  30        30   980     311.9 
  31        31   980     281.6 
  32        32   980     300.3 
  33        33   980     267.3 
  34        34   981     299.4 
  35        35   981     319.7 
  36        36   980     272.1 
  37        37   981     268.8 
  38        38   980     338.4 
  39        39   981     270.8 
  40        40   980     318.4 
  41        41   981     259.9 
  42        42   980     321.8 
  43        43   982     357.8 
  44        44   981     323.8 
  45        45   980     354.1 
  46        46   981     324.5 
  47        47   982     332.3 
  48        48   982     343.5 
  49        49   981     344.5 
  50        50   981     335.4 
  51        51   980     322.4 
  52        52   983     363.2 
  53        53   981     341.5 
  54        54   981     296.0 
  55        55   981     372.1 
  56        56   982     374.7 
  57        57   982     362.2 
  58        58   981     351.7 
  59        59   981     358.5 
  60        60   980     392.2 
  61        61   983     388.6 
  62        62   981     323.8 
  63        63   981     359.2 
  64        64   981     375.1 
  65        65   982     412.1 
  66        66   982     380.9 
  67        67   981     336.7 
  68        68   981     369.7 
  69        69   981     347.6 
  70        70   983     365.5 
  71        71   980     328.9 
  72        72   981     366.0 
  73        73   981     380.9 
  74        74   982     360.8 
  75        75   981     334.7 
  76        76   980     363.9 
  77        77   980     412.2 
  78        78   982     390.0 
  79        79   982     389.0 
  80        80   980     379.6 
  81        81   981     383.6 
  82        82   980     354.4 
  83        83   982     377.8 
  84        84   980     352.4 
  85        85   980     371.8 
  86        86   980     352.7 
  87        87   982     386.3 
  88        88   981     373.4 
  89        89   980     365.3 
  90        90   981     379.9 
  91        91   981     371.4 
  92        92   982     370.3 
  93        93   980     347.6 
  94        94   980     352.0 
  95        95   980     387.1 
  96        96   982     373.4 
  97        97   981     338.1 
  98        98   980     337.4 
  99        99   980     357.5 
 100       100   980     367.0 
 101       101   981     390.1 
 102       102   980     346.9 
 103       103   980     306.1 
 104       104   980     369.7 
 105       105   982     335.0 
 106       106   980     302.7 
 107       107   980     379.9 
 108       108   980     362.6 
 109       109   981     332.0 
 110       110   980     368.7 
 111       111   980     341.2 
 112       112   980     324.8 
 113       113   980     364.6 
 114       114   981     342.8 
 115       115   980     299.0 
 116       116   980     355.1 
 117       117   980     362.9 
 118       118   980     337.1 
 119       119   980     315.6 
 120       120   979     307.5 
 121       121   980     290.8 
 122       122   980     370.4 
 123       123   981     319.1 
 124       124   979     320.7 
 125       125   980     305.4 
 126       126   980     371.4 
 127       127   981     368.3 
 128       128   980     283.0 
 129       129   979     328.2 
 130       130   979     348.0 
 131       131   980     325.5 
 132       132   980     308.5 
 133       133   979     317.0 
 134       134   979     314.6 
 135       135   979     333.0 
 136       136   980     271.1 
 137       137   979     310.5 
 138       138   979     286.0 
 139       139   979     340.8 
 140       140   980     300.0 
 141       141   980     293.5 
 142       142   978     268.6 
 143       143   980     308.8 
 144       144   979     285.7 
 145       145   980     284.7 
 146       146   978     273.3 
 147       147   979     323.5 
 148       148   979     350.4 
 149       149   979     333.7 
 150       150   979     333.7 
 151       210  1000     426.3 
 152       270   997     258.8 
 153       330  1000     334.7 
 154       390   996     285.8 
 155       450   996     416.0 
 156       510   996     215.5 
 157       570   994     325.3 
 158       630   998     239.8 
 159       810   983     346.6 
 160       990   980     313.9 
 161      1170   985     353.0 
 162      1350   986     295.8 
 163      1530   981     384.3 
 164      2070   980     433.0 
 165      2691   973     417.3 
 166      3405   978     321.7 
 167      4226   978     326.5 
 168      5170   976     266.7 
 169      6256   975     342.2 
 170      7505   974     398.7 
 171      8941   977     349.0 
 172     10592   975     308.0 
 173     12491   973     325.1 
 174     14675   979     303.0 
 175     17187   975     420.9 
 176     20076   974     306.6 
 177     23398   977     255.2 
 178     27218   979     407.2 
 179     31611   980     203.1 
 180     36663   980     298.3 
 181     42473   977     309.8 
 182     49155   978     355.1 
 183     56839   980     255.4 
 184     65676   977     378.4 
 185     75839   981     378.4 
   1         1   156    -106.8 
   2         2   817     227.3 
   3         3   953     333.7 
   4         4   969     327.8 
   5         5   972     299.0 
   6         6   973     262.4 
   7         7   973     321.0 
   8         8   977     362.3 
   9         9   974     303.6 
  10        10   975     283.4 
  11        11   976     304.3 
  12        12   977     360.3 
  13        13   977     379.7 
  14        14   977     325.5 
  15        15   977     323.4 
  16        16   978     381.4 
  17        17   980     388.1 
  18        18   977     314.9 
  19        19   978     326.5 
  20        20   979     327.2 
  21        21   980     362.2 
  22        22   979     311.9 
  23        23   979     325.8 
  24        24   979     275.5 
  25        25   980     340.5 
  26        26   980     319.0 
  27        27   978     293.1 
  28        28   980     292.9 
  29        29   980     329.6 
  30        30   980     339.8 
  31        31   980     283.7 
  32        32   980     270.7 
  33        33   980     320.4 
  34        34   981     368.0 
  35        35   981     285.4 
  36        36   980     290.8 
  37        37   981     296.0 
  38        38   980     349.3 
  39        39   981     313.6 
  40        40   980     275.9 
  41        41   981     271.8 
  42        42   980     300.7 
  43        43   982     366.3 
  44        44   981     266.4 
  45        45   980     265.3 
  46        46   981     301.1 
  47        47   982     348.3 
  48        48   982     313.3 
  49        49   981     299.7 
  50        50   981     293.9 
  51        51   980     370.7 
  52        52   983     359.1 
  53        53   981     321.1 
  54        54   981     319.7 
  55        55   981     332.3 
  56        56   982     354.7 
  57        57   982     320.1 
  58        58   981     302.8 
  59        59   981     355.1 
  60        60   980     343.2 
  61        61   983     344.2 
  62        62   981     310.6 
  63        63   981     317.0 
  64        64   981     366.6 
  65        65   982     339.4 
  66        66   982     314.0 
  67        67   981     374.8 
  68        68   981     340.8 
  69        69   981     422.0 
  70        70   983     331.3 
  71        71   980     327.6 
  72        72   981     323.5 
  73        73   981     378.2 
  74        74   982     389.0 
  75        75   981     350.0 
  76        76   980     349.3 
  77        77   980     373.8 
  78        78   982     370.0 
  79        79   982     338.4 
  80        80   980     343.2 
  81        81   981     335.0 
  82        82   980     390.1 
  83        83   982     376.4 
  84        84   980     354.8 
  85        85   980     341.5 
  86        86   980     394.9 
  87        87   982     363.5 
  88        88   981     340.1 
  89        89   980     389.1 
  90        90   981     360.5 
  91        91   981     365.6 
  92        92   982     334.7 
  93        93   980     338.8 
  94        94   980     337.8 
  95        95   980     400.3 
  96        96   982     361.2 
  97        97   981     341.1 
  98        98   980     329.9 
  99        99   980     389.1 
 100       100   980     348.0 
 101       101   981     375.5 
 102       102   980     334.0 
 103       103   980     368.4 
 104       104   980     412.9 
 105       105   982     338.4 
 106       106   980     342.5 
 107       107   980     326.2 
 108       108   980     388.4 
 109       109   981     376.1 
 110       110   980     330.6 
 111       111   980     343.9 
 112       112   980     396.6 
 113       113   980     404.8 
 114       114   981     320.8 
 115       115   980     351.0 
 116       116   980     345.6 
 117       117   980     392.5 
 118       118   980     340.5 
 119       119   980     378.9 
 120       120   979     335.0 
 121       121   980     370.7 
 122       122   980     346.6 
 123       123   981     336.7 
 124       124   979     324.8 
 125       125   980     375.2 
 126       126   980     324.8 
 127       127   981     307.5 
 128       128   980     315.0 
 129       129   979     368.1 
 130       130   979     346.6 
 131       131   980     341.5 
 132       132   980     333.0 
 133       133   979     317.0 
 134       134   979     345.9 
 135       135   979     323.8 
 136       136   980     321.4 
 137       137   979     339.8 
 138       138   979     344.2 
 139       139   979     387.5 
 140       140   980     278.9 
 141       141   980     294.6 
 142       142   978     359.2 
 143       143   980     338.1 
 144       144   979     326.9 
 145       145   980     309.5 
 146       146   978     327.9 
 147       147   979     360.9 
 148       148   979     334.0 
 149       149   979     332.3 
 150       150   979     332.3 
 151       210  1000     376.3 
 152       270   997     265.8 
 153       330  1000     322.7 
 154       390   996     372.8 
 155       450   996     455.5 
 156       510   996     315.3 
 157       570   994     314.6 
 158       630   998     326.3 
 159       810   983     325.5 
 160       990   980     499.3 
 161      1170   985     346.5 
 162      1350   986     347.2 
 163      1530   981     472.0 
 164      2070   980     416.3 
 165      2691   973     312.1 
 166      3405   978     317.7 
 167      4226   978     341.2 
 168      5170   976     466.2 
 169      6256   975     247.2 
 170      7505   974     315.5 
 171      8941   977     306.0 
 172     10592   975     295.4 
 173     12491   973     340.2 
 174     14675   979     334.0 
 175     17187   975     247.5 
 176     20076   974     273.1 
 177     23398   977     266.8 
 178     27218   979     345.3 
 179     31611   980     267.7 
 180     36663   980     309.9 
 181     42473   977     490.6 
 182     49155   978     224.3 
 183     56839   980     397.3 
 184     65676   977     206.4 
 185     75839   981     206.4 
