PC/104 FIRe Fluorometer 2.0.0
 4/ 8/2025     37127
LED Color:           blue
Gain:               2000
Sample Delay (msec):    10
Number Samples:   3
STF (usec):      150
STRP (#samples):       35
STRI (usec):       60
MTF (ms):        0
MTF (#samples):     0
MTRP (#samples):        0
MTRI (usec):      100
PQLen:     4
Ambient Light Source Power: Off
PAR (uMol/m^2/s):247.98
Comment:
Depth(m):  -0.7
Temperature(C):  72.6
Battery(V):  14.38

         Time    EX   Fl-Yield 
DATA--------------------------
   0         0     0       0.0 
   1         1   156     228.6 
   2         2   817     237.5 
   3         3   953     224.6 
   4         4   969     244.2 
   5         5   972     297.0 
   6         6   973     321.0 
   7         7   973     324.8 
   8         8   977     298.2 
   9         9   974     333.3 
  10        10   975     335.4 
  11        11   976     312.5 
  12        12   977     356.9 
  13        13   977     343.2 
  14        14   977     397.5 
  15        15   977     362.7 
  16        16   978     282.2 
  17        17   980     376.2 
  18        18   977     372.6 
  19        19   978     391.6 
  20        20   979     340.5 
  21        21   980     382.3 
  22        22   979     389.5 
  23        23   979     383.4 
  24        24   979     411.0 
  25        25   980     373.8 
  26        26   980     344.2 
  27        27   978     387.9 
  28        28   980     385.7 
  29        29   980     339.1 
  30        30   980     374.5 
  31        31   980     404.4 
  32        32   980     422.1 
  33        33   980     372.4 
  34        34   981     327.6 
  35        35   981     422.0 
  36        36   980     421.4 
  37        37   981     357.5 
  38        38   980     347.3 
  39        39   981     384.6 
  40        40   980     408.8 
  41        41   981     413.9 
  42        42   980     406.8 
  43        43   982     381.5 
  44        44   981     419.3 
  45        45   980     406.5 
  46        46   981     407.4 
  47        47   982     406.3 
  48        48   982     412.8 
  49        49   981     437.0 
  50        50   981     390.1 
  51        51   980     367.3 
  52        52   983     409.3 
  53        53   981     442.4 
  54        54   981     410.5 
  55        55   981     384.0 
  56        56   982     366.6 
  57        57   982     405.0 
  58        58   981     399.3 
  59        59   981     362.9 
  60        60   980     370.1 
  61        61   983     311.3 
  62        62   981     376.1 
  63        63   981     406.0 
  64        64   981     313.3 
  65        65   982     408.0 
  66        66   982     444.3 
  67        67   981     404.3 
  68        68   981     310.6 
  69        69   981     382.3 
  70        70   983     402.5 
  71        71   980     421.8 
  72        72   981     361.9 
  73        73   981     328.2 
  74        74   982     384.2 
  75        75   981     348.6 
  76        76   980     401.7 
  77        77   980     339.8 
  78        78   982     331.6 
  79        79   982     394.8 
  80        80   980     369.4 
  81        81   981     360.2 
  82        82   980     332.7 
  83        83   982     362.5 
  84        84   980     365.3 
  85        85   980     311.2 
  86        86   980     321.4 
  87        87   982     362.5 
  88        88   981     402.3 
  89        89   980     322.4 
  90        90   981     338.4 
  91        91   981     324.5 
  92        92   982     356.8 
  93        93   980     370.4 
  94        94   980     362.6 
  95        95   980     329.3 
  96        96   982     324.8 
  97        97   981     316.0 
  98        98   980     336.7 
  99        99   980     345.9 
 100       100   980     374.1 
 101       101   981     373.1 
 102       102   980     344.6 
 103       103   980     320.4 
 104       104   980     329.3 
 105       105   982     362.9 
 106       106   980     359.2 
 107       107   980     337.8 
 108       108   980     362.2 
 109       109   981     350.3 
 110       110   980     361.6 
 111       111   980     373.5 
 112       112   980     274.1 
 113       113   980     355.4 
 114       114   981     384.3 
 115       115   980     330.6 
 116       116   980     312.6 
 117       117   980     380.6 
 118       118   980     350.7 
 119       119   980     378.2 
 120       120   979     341.8 
 121       121   980     298.3 
 122       122   980     340.8 
 123       123   981     432.9 
 124       124   979     365.0 
 125       125   980     332.3 
 126       126   980     307.1 
 127       127   981     307.2 
 128       128   980     387.4 
 129       129   979     396.0 
 130       130   979     339.8 
 131       131   980     371.8 
 132       132   980     376.5 
 133       133   979     366.7 
 134       134   979     341.2 
 135       135   979     393.6 
 136       136   980     407.5 
 137       137   979     355.8 
 138       138   979     342.5 
 139       139   979     371.1 
 140       140   980     392.9 
 141       141   980     400.7 
 142       142   978     365.7 
 143       143   980     423.5 
 144       144   979     347.6 
 145       145   980     447.3 
 146       146   978     402.2 
 147       147   979     370.4 
 148       148   979     398.7 
 149       149   979     369.1 
 150       150   979     369.1 
 151       210  1000     409.7 
 152       270   997     521.6 
 153       330  1000     278.7 
 154       390   996     435.7 
 155       450   996     388.2 
 156       510   996     418.7 
 157       570   994     245.8 
 158       630   998     367.4 
 159       810   983     287.9 
 160       990   980     264.3 
 161      1170   985     329.3 
 162      1350   986     323.5 
 163      1530   981     481.1 
 164      2070   980     288.1 
 165      2691   973     303.9 
 166      3405   978     226.0 
 167      4226   978     309.1 
 168      5170   976     401.0 
 169      6256   975     293.7 
 170      7505   974     310.1 
 171      8941   977     343.6 
 172     10592   975     241.0 
 173     12491   973     212.4 
 174     14675   979     257.1 
 175     17187   975     257.1 
 176     20076   974     355.9 
 177     23398   977     203.7 
 178     27218   979     289.4 
 179     31611   980     299.3 
 180     36663   980     246.3 
 181     42473   977     246.0 
 182     49155   978     242.0 
 183     56839   980     270.1 
 184     65676   977     257.3 
 185     75839   981     257.3 
   1         1   156      83.3 
   2         2   817     346.8 
   3         3   953     355.4 
   4         4   969     369.8 
   5         5   972     356.3 
   6         6   973     340.5 
   7         7   973     349.1 
   8         8   977     388.6 
   9         9   974     328.5 
  10        10   975     327.5 
  11        11   976     366.8 
  12        12   977     439.1 
  13        13   977     422.0 
  14        14   977     332.3 
  15        15   977     366.1 
  16        16   978     398.8 
  17        17   980     408.5 
  18        18   977     407.7 
  19        19   978     364.3 
  20        20   979     360.9 
  21        21   980     419.7 
  22        22   979     401.1 
  23        23   979     306.8 
  24        24   979     342.5 
  25        25   980     361.6 
  26        26   980     340.5 
  27        27   978     304.0 
  28        28   980     350.0 
  29        29   980     342.2 
  30        30   980     369.7 
  31        31   980     312.2 
  32        32   980     340.1 
  33        33   980     379.6 
  34        34   981     422.7 
  35        35   981     334.7 
  36        36   980     299.7 
  37        37   981     348.6 
  38        38   980     369.0 
  39        39   981     349.3 
  40        40   980     375.2 
  41        41   981     357.1 
  42        42   980     412.2 
  43        43   982     434.8 
  44        44   981     348.6 
  45        45   980     340.5 
  46        46   981     382.9 
  47        47   982     428.4 
  48        48   982     353.7 
  49        49   981     315.7 
  50        50   981     377.2 
  51        51   980     409.5 
  52        52   983     373.7 
  53        53   981     389.1 
  54        54   981     349.6 
  55        55   981     357.1 
  56        56   982     399.5 
  57        57   982     391.7 
  58        58   981     344.5 
  59        59   981     380.2 
  60        60   980     383.7 
  61        61   983     368.3 
  62        62   981     357.5 
  63        63   981     324.5 
  64        64   981     344.5 
  65        65   982     439.9 
  66        66   982     377.1 
  67        67   981     334.7 
  68        68   981     330.3 
  69        69   981     395.2 
  70        70   983     375.7 
  71        71   980     333.7 
  72        72   981     348.3 
  73        73   981     400.6 
  74        74   982     407.0 
  75        75   981     360.9 
  76        76   980     404.8 
  77        77   980     411.2 
  78        78   982     445.7 
  79        79   982     363.2 
  80        80   980     384.0 
  81        81   981     418.3 
  82        82   980     464.3 
  83        83   982     401.2 
  84        84   980     351.7 
  85        85   980     369.0 
  86        86   980     413.9 
  87        87   982     406.7 
  88        88   981     397.6 
  89        89   980     393.2 
  90        90   981     389.4 
  91        91   981     409.1 
  92        92   982     364.9 
  93        93   980     336.7 
  94        94   980     392.5 
  95        95   980     409.2 
  96        96   982     464.7 
  97        97   981     362.6 
  98        98   980     415.0 
  99        99   980     455.4 
 100       100   980     425.2 
 101       101   981     421.0 
 102       102   980     335.7 
 103       103   980     326.2 
 104       104   980     425.5 
 105       105   982     369.7 
 106       106   980     373.1 
 107       107   980     349.3 
 108       108   980     438.4 
 109       109   981     414.9 
 110       110   980     384.0 
 111       111   980     363.3 
 112       112   980     378.6 
 113       113   980     418.7 
 114       114   981     393.8 
 115       115   980     400.0 
 116       116   980     377.2 
 117       117   980     381.6 
 118       118   980     417.7 
 119       119   980     381.3 
 120       120   979     369.4 
 121       121   980     442.2 
 122       122   980     426.9 
 123       123   981     407.7 
 124       124   979     364.3 
 125       125   980     371.4 
 126       126   980     405.1 
 127       127   981     397.2 
 128       128   980     361.2 
 129       129   979     388.8 
 130       130   979     423.2 
 131       131   980     407.8 
 132       132   980     336.7 
 133       133   979     345.3 
 134       134   979     398.0 
 135       135   979     400.4 
 136       136   980     386.4 
 137       137   979     369.4 
 138       138   979     375.9 
 139       139   979     397.7 
 140       140   980     337.4 
 141       141   980     399.7 
 142       142   978     344.2 
 143       143   980     380.6 
 144       144   979     381.3 
 145       145   980     372.4 
 146       146   978     358.2 
 147       147   979     375.6 
 148       148   979     393.9 
 149       149   979     388.5 
 150       150   979     388.5 
 151       210  1000     374.3 
 152       270   997     306.6 
 153       330  1000     483.7 
 154       390   996     394.6 
 155       450   996     386.9 
 156       510   996     450.1 
 157       570   994     476.9 
 158       630   998     329.0 
 159       810   983     430.0 
 160       990   980     464.3 
 161      1170   985     440.6 
 162      1350   986     494.3 
 163      1530   981     355.1 
 164      2070   980     383.3 
 165      2691   973     312.8 
 166      3405   978     386.8 
 167      4226   978     389.9 
 168      5170   976     459.0 
 169      6256   975     416.1 
 170      7505   974     288.8 
 171      8941   977     461.3 
 172     10592   975     524.1 
 173     12491   973     480.0 
 174     14675   979     398.4 
 175     17187   975     421.5 
 176     20076   974     257.0 
 177     23398   977     339.1 
 178     27218   979     402.8 
 179     31611   980     472.8 
 180     36663   980     201.7 
 181     42473   977     229.6 
 182     49155   978     354.1 
 183     56839   980     386.7 
 184     65676   977     271.6 
 185     75839   981     271.6 
