PC/104 FIRe Fluorometer 2.0.0
 4/ 8/2025     33439
LED Color:           blue
Gain:               1800
Sample Delay (msec):    10
Number Samples:   3
STF (usec):      150
STRP (#samples):       35
STRI (usec):       60
MTF (ms):        0
MTF (#samples):     0
MTRP (#samples):        0
MTRI (usec):      100
PQLen:     4
Ambient Light Source Power: Off
PAR (uMol/m^2/s):900.00
Comment:
Depth(m):   1.8
Temperature(C):  67.4
Battery(V):  15.10

         Time    EX   Fl-Yield 
DATA--------------------------
   0         0     0       0.0 
   1         1   156     232.9 
   2         2   817     129.3 
   3         3   953     141.0 
   4         4   969     136.6 
   5         5   972     141.3 
   6         6   973     147.0 
   7         7   973     149.0 
   8         8   977     150.8 
   9         9   974     108.8 
  10        10   975     152.1 
  11        11   976     141.4 
  12        12   977     118.0 
  13        13   977     159.7 
  14        14   977     179.1 
  15        15   977     167.9 
  16        16   978     159.5 
  17        17   980     129.9 
  18        18   977     171.3 
  19        19   978     183.4 
  20        20   979     168.2 
  21        21   980     156.1 
  22        22   979     170.2 
  23        23   979     211.4 
  24        24   979     208.4 
  25        25   980     153.4 
  26        26   980     185.7 
  27        27   978     186.8 
  28        28   980     216.3 
  29        29   980     179.6 
  30        30   980     172.8 
  31        31   980     154.1 
  32        32   980     224.1 
  33        33   980     213.3 
  34        34   981     213.4 
  35        35   981     171.6 
  36        36   980     146.9 
  37        37   981     201.5 
  38        38   980     195.6 
  39        39   981     196.4 
  40        40   980     167.3 
  41        41   981     199.1 
  42        42   980     215.0 
  43        43   982     189.1 
  44        44   981     194.7 
  45        45   980     166.7 
  46        46   981     215.1 
  47        47   982     189.1 
  48        48   982     166.3 
  49        49   981     151.2 
  50        50   981     203.2 
  51        51   980     182.3 
  52        52   983     137.3 
  53        53   981     162.8 
  54        54   981     189.6 
  55        55   981     209.3 
  56        56   982     178.5 
  57        57   982     151.7 
  58        58   981     162.4 
  59        59   981     195.4 
  60        60   980     167.0 
  61        61   983     149.5 
  62        62   981     170.2 
  63        63   981     195.0 
  64        64   981     168.9 
  65        65   982     142.6 
  66        66   982     181.3 
  67        67   981     167.9 
  68        68   981     188.9 
  69        69   981     159.7 
  70        70   983     147.5 
  71        71   980     183.0 
  72        72   981     195.7 
  73        73   981     149.8 
  74        74   982     162.6 
  75        75   981     206.9 
  76        76   980     188.1 
  77        77   980     183.0 
  78        78   982     176.2 
  79        79   982     166.7 
  80        80   980     177.9 
  81        81   981     199.8 
  82        82   980     176.2 
  83        83   982     173.5 
  84        84   980     179.3 
  85        85   980     185.7 
  86        86   980     180.3 
  87        87   982     170.7 
  88        88   981     138.3 
  89        89   980     178.9 
  90        90   981     203.2 
  91        91   981     178.0 
  92        92   982     157.5 
  93        93   980     151.4 
  94        94   980     151.4 
  95        95   980     153.7 
  96        96   982     148.0 
  97        97   981     161.1 
  98        98   980     149.7 
  99        99   980     178.9 
 100       100   980     160.2 
 101       101   981     151.5 
 102       102   980     169.0 
 103       103   980     158.5 
 104       104   980     172.4 
 105       105   982     165.6 
 106       106   980     138.8 
 107       107   980     174.5 
 108       108   980     193.2 
 109       109   981     164.8 
 110       110   980     143.9 
 111       111   980     168.0 
 112       112   980     205.4 
 113       113   980     191.8 
 114       114   981     150.2 
 115       115   980     171.1 
 116       116   980     203.1 
 117       117   980     175.2 
 118       118   980     162.6 
 119       119   980     168.4 
 120       120   979     188.3 
 121       121   980     213.9 
 122       122   980     170.7 
 123       123   981     157.0 
 124       124   979     177.7 
 125       125   980     196.6 
 126       126   980     212.6 
 127       127   981     191.0 
 128       128   980     187.4 
 129       129   979     179.8 
 130       130   979     211.4 
 131       131   980     184.4 
 132       132   980     202.7 
 133       133   979     168.2 
 134       134   979     181.1 
 135       135   979     180.1 
 136       136   980     205.4 
 137       137   979     173.0 
 138       138   979     174.3 
 139       139   979     233.9 
 140       140   980     192.2 
 141       141   980     187.1 
 142       142   978     195.6 
 143       143   980     228.2 
 144       144   979     189.6 
 145       145   980     178.2 
 146       146   978     192.6 
 147       147   979     211.8 
 148       148   979     230.8 
 149       149   979     212.8 
 150       150   979     212.8 
 151       210  1000     209.0 
 152       270   997     306.6 
 153       330  1000     168.7 
 154       390   996     228.9 
 155       450   996     180.7 
 156       510   996     135.2 
 157       570   994     216.3 
 158       630   998     161.7 
 159       810   983     133.3 
 160       990   980     251.4 
 161      1170   985     135.7 
 162      1350   986      96.0 
 163      1530   981     229.7 
 164      2070   980     138.1 
 165      2691   973     112.4 
 166      3405   978     235.9 
 167      4226   978     165.0 
 168      5170   976     198.4 
 169      6256   975     187.4 
 170      7505   974     161.5 
 171      8941   977     221.1 
 172     10592   975      67.4 
 173     12491   973     172.0 
 174     14675   979     207.7 
 175     17187   975     204.4 
 176     20076   974     174.9 
 177     23398   977      72.7 
 178     27218   979      82.1 
 179     31611   980     159.9 
 180     36663   980     126.9 
 181     42473   977     132.7 
 182     49155   978     117.2 
 183     56839   980     140.1 
 184     65676   977     226.2 
 185     75839   981     226.2 
   1         1   156     250.0 
   2         2   817     173.8 
   3         3   953     168.9 
   4         4   969     156.9 
   5         5   972     185.2 
   6         6   973     197.7 
   7         7   973     216.5 
   8         8   977     205.4 
   9         9   974     228.6 
  10        10   975     241.4 
  11        11   976     279.4 
  12        12   977     265.8 
  13        13   977     267.5 
  14        14   977     296.5 
  15        15   977     322.8 
  16        16   978     284.9 
  17        17   980     273.1 
  18        18   977     248.4 
  19        19   978     312.2 
  20        20   979     279.2 
  21        21   980     251.7 
  22        22   979     224.4 
  23        23   979     238.0 
  24        24   979     282.3 
  25        25   980     249.0 
  26        26   980     231.3 
  27        27   978     230.7 
  28        28   980     231.6 
  29        29   980     227.6 
  30        30   980     231.6 
  31        31   980     220.4 
  32        32   980     239.1 
  33        33   980     232.3 
  34        34   981     230.0 
  35        35   981     215.4 
  36        36   980     231.6 
  37        37   981     209.7 
  38        38   980     235.0 
  39        39   981     220.9 
  40        40   980     217.7 
  41        41   981     241.6 
  42        42   980     255.4 
  43        43   982     235.2 
  44        44   981     226.6 
  45        45   980     275.2 
  46        46   981     255.2 
  47        47   982     250.2 
  48        48   982     262.1 
  49        49   981     227.3 
  50        50   981     245.3 
  51        51   980     249.3 
  52        52   983     234.7 
  53        53   981     260.3 
  54        54   981     210.3 
  55        55   981     227.7 
  56        56   982     231.2 
  57        57   982     235.2 
  58        58   981     246.7 
  59        59   981     253.5 
  60        60   980     249.3 
  61        61   983     223.8 
  62        62   981     191.0 
  63        63   981     257.9 
  64        64   981     223.2 
  65        65   982     255.9 
  66        66   982     189.1 
  67        67   981     241.9 
  68        68   981     255.2 
  69        69   981     234.8 
  70        70   983     244.5 
  71        71   980     220.7 
  72        72   981     224.9 
  73        73   981     218.5 
  74        74   982     208.8 
  75        75   981     193.3 
  76        76   980     240.8 
  77        77   980     252.7 
  78        78   982     232.5 
  79        79   982     194.2 
  80        80   980     198.6 
  81        81   981     227.0 
  82        82   980     244.9 
  83        83   982     171.4 
  84        84   980     190.8 
  85        85   980     223.8 
  86        86   980     218.0 
  87        87   982     206.7 
  88        88   981     196.4 
  89        89   980     189.8 
  90        90   981     215.1 
  91        91   981     208.6 
  92        92   982     203.7 
  93        93   980     200.3 
  94        94   980     231.0 
  95        95   980     224.1 
  96        96   982     217.2 
  97        97   981     202.9 
  98        98   980     210.5 
  99        99   980     232.7 
 100       100   980     197.6 
 101       101   981     198.1 
 102       102   980     192.2 
 103       103   980     220.1 
 104       104   980     223.1 
 105       105   982     205.7 
 106       106   980     182.0 
 107       107   980     218.0 
 108       108   980     213.6 
 109       109   981     223.9 
 110       110   980     212.6 
 111       111   980     190.5 
 112       112   980     222.8 
 113       113   980     241.2 
 114       114   981     177.7 
 115       115   980     224.1 
 116       116   980     197.6 
 117       117   980     207.5 
 118       118   980     208.2 
 119       119   980     208.8 
 120       120   979     183.9 
 121       121   980     211.6 
 122       122   980     215.3 
 123       123   981     205.2 
 124       124   979     190.7 
 125       125   980     231.6 
 126       126   980     198.3 
 127       127   981     216.4 
 128       128   980     189.5 
 129       129   979     218.6 
 130       130   979     208.4 
 131       131   980     203.7 
 132       132   980     182.3 
 133       133   979     201.2 
 134       134   979     229.8 
 135       135   979     224.0 
 136       136   980     210.5 
 137       137   979     217.9 
 138       138   979     247.9 
 139       139   979     224.4 
 140       140   980     235.0 
 141       141   980     223.5 
 142       142   978     237.9 
 143       143   980     274.1 
 144       144   979     243.8 
 145       145   980     225.5 
 146       146   978     239.6 
 147       147   979     262.9 
 148       148   979     229.5 
 149       149   979     256.4 
 150       150   979     256.4 
 151       210  1000     152.3 
 152       270   997     256.1 
 153       330  1000     133.7 
 154       390   996     263.4 
 155       450   996     151.3 
 156       510   996     216.5 
 157       570   994     246.8 
 158       630   998     132.6 
 159       810   983     243.5 
 160       990   980     219.4 
 161      1170   985     119.8 
 162      1350   986     216.4 
 163      1530   981     244.6 
 164      2070   980     281.3 
 165      2691   973     170.3 
 166      3405   978     211.7 
 167      4226   978     204.5 
 168      5170   976     260.6 
 169      6256   975     232.8 
 170      7505   974     287.5 
 171      8941   977     195.8 
 172     10592   975     183.2 
 173     12491   973     132.6 
 174     14675   979     209.7 
 175     17187   975     212.6 
 176     20076   974      80.1 
 177     23398   977     188.0 
 178     27218   979     190.3 
 179     31611   980     209.9 
 180     36663   980     192.5 
 181     42473   977     165.1 
 182     49155   978     121.3 
 183     56839   980     193.5 
 184     65676   977     155.6 
 185     75839   981     155.6 
