PC/104 FIRe Fluorometer 2.0.0
 4/ 8/2025     29682
LED Color:           blue
Gain:               1800
Sample Delay (msec):    10
Number Samples:   3
STF (usec):      150
STRP (#samples):       35
STRI (usec):       60
MTF (ms):        0
MTF (#samples):     0
MTRP (#samples):        0
MTRI (usec):      100
PQLen:     4
Ambient Light Source Power: Off
PAR (uMol/m^2/s):899.24
Comment:
Depth(m):   2.5
Temperature(C):  53.8
Battery(V):  15.94

         Time    EX   Fl-Yield 
DATA--------------------------
   0         0     0       0.0 
   1         1   156     158.1 
   2         2   817     353.7 
   3         3   953     394.9 
   4         4   969     360.5 
   5         5   972     362.8 
   6         6   973     369.6 
   7         7   973     398.4 
   8         8   977     435.7 
   9         9   974     370.3 
  10        10   975     382.9 
  11        11   976     429.3 
  12        12   977     404.0 
  13        13   977     417.3 
  14        14   977     381.1 
  15        15   977     406.3 
  16        16   978     471.7 
  17        17   980     442.5 
  18        18   977     440.8 
  19        19   978     451.6 
  20        20   979     462.7 
  21        21   980     470.4 
  22        22   979     471.9 
  23        23   979     466.5 
  24        24   979     455.2 
  25        25   980     473.1 
  26        26   980     501.7 
  27        27   978     483.3 
  28        28   980     476.2 
  29        29   980     475.2 
  30        30   980     499.7 
  31        31   980     506.5 
  32        32   980     510.5 
  33        33   980     481.3 
  34        34   981     512.7 
  35        35   981     518.5 
  36        36   980     478.6 
  37        37   981     517.2 
  38        38   980     500.3 
  39        39   981     526.3 
  40        40   980     524.5 
  41        41   981     510.0 
  42        42   980     515.3 
  43        43   982     553.6 
  44        44   981     512.1 
  45        45   980     512.6 
  46        46   981     509.0 
  47        47   982     540.7 
  48        48   982     529.9 
  49        49   981     522.3 
  50        50   981     540.6 
  51        51   980     524.1 
  52        52   983     537.5 
  53        53   981     529.4 
  54        54   981     526.0 
  55        55   981     528.0 
  56        56   982     561.8 
  57        57   982     532.6 
  58        58   981     531.8 
  59        59   981     514.1 
  60        60   980     519.4 
  61        61   983     538.1 
  62        62   981     536.2 
  63        63   981     515.5 
  64        64   981     523.3 
  65        65   982     560.1 
  66        66   982     541.8 
  67        67   981     557.9 
  68        68   981     495.4 
  69        69   981     557.9 
  70        70   983     556.5 
  71        71   980     526.5 
  72        72   981     533.5 
  73        73   981     518.9 
  74        74   982     571.6 
  75        75   981     543.0 
  76        76   980     527.2 
  77        77   980     506.1 
  78        78   982     525.8 
  79        79   982     553.0 
  80        80   980     500.3 
  81        81   981     536.2 
  82        82   980     544.2 
  83        83   982     538.7 
  84        84   980     556.1 
  85        85   980     558.2 
  86        86   980     522.1 
  87        87   982     545.1 
  88        88   981     550.5 
  89        89   980     551.7 
  90        90   981     548.4 
  91        91   981     540.3 
  92        92   982     563.1 
  93        93   980     549.0 
  94        94   980     518.0 
  95        95   980     541.5 
  96        96   982     558.4 
  97        97   981     556.6 
  98        98   980     566.0 
  99        99   980     506.8 
 100       100   980     544.2 
 101       101   981     573.2 
 102       102   980     526.2 
 103       103   980     571.1 
 104       104   980     535.4 
 105       105   982     545.8 
 106       106   980     574.8 
 107       107   980     533.3 
 108       108   980     547.3 
 109       109   981     544.0 
 110       110   980     566.3 
 111       111   980     579.3 
 112       112   980     551.0 
 113       113   980     575.5 
 114       114   981     612.0 
 115       115   980     560.5 
 116       116   980     555.4 
 117       117   980     571.8 
 118       118   980     594.9 
 119       119   980     561.9 
 120       120   979     571.7 
 121       121   980     574.5 
 122       122   980     556.1 
 123       123   981     575.9 
 124       124   979     577.5 
 125       125   980     584.0 
 126       126   980     548.6 
 127       127   981     589.5 
 128       128   980     570.1 
 129       129   979     594.5 
 130       130   979     556.3 
 131       131   980     565.3 
 132       132   980     594.2 
 133       133   979     606.7 
 134       134   979     549.9 
 135       135   979     537.6 
 136       136   980     571.8 
 137       137   979     588.0 
 138       138   979     554.0 
 139       139   979     532.2 
 140       140   980     534.0 
 141       141   980     583.0 
 142       142   978     583.8 
 143       143   980     568.7 
 144       144   979     521.3 
 145       145   980     581.0 
 146       146   978     564.1 
 147       147   979     558.4 
 148       148   979     527.1 
 149       149   979     584.3 
 150       150   979     584.3 
 151       210  1000     513.0 
 152       270   997     541.3 
 153       330  1000     484.3 
 154       390   996     509.7 
 155       450   996     488.6 
 156       510   996     522.1 
 157       570   994     467.1 
 158       630   998     484.3 
 159       810   983     393.7 
 160       990   980     483.7 
 161      1170   985     433.8 
 162      1350   986     433.7 
 163      1530   981     419.0 
 164      2070   980     400.3 
 165      2691   973     431.0 
 166      3405   978     399.5 
 167      4226   978     410.7 
 168      5170   976     364.1 
 169      6256   975     327.9 
 170      7505   974     368.2 
 171      8941   977     402.3 
 172     10592   975     454.0 
 173     12491   973     429.9 
 174     14675   979     436.2 
 175     17187   975     438.6 
 176     20076   974     420.6 
 177     23398   977     371.9 
 178     27218   979     432.4 
 179     31611   980     405.4 
 180     36663   980     305.4 
 181     42473   977     359.3 
 182     49155   978     371.2 
 183     56839   980     359.2 
 184     65676   977     365.4 
 185     75839   981     365.4 
   1         1   156     790.6 
   2         2   817     816.8 
   3         3   953     808.3 
   4         4   969     830.4 
   5         5   972     822.4 
   6         6   973     868.1 
   7         7   973     781.8 
   8         8   977     842.4 
   9         9   974     874.7 
  10        10   975     875.2 
  11        11   976     898.9 
  12        12   977     905.2 
  13        13   977     905.8 
  14        14   977     923.2 
  15        15   977     928.0 
  16        16   978     930.8 
  17        17   980     918.4 
  18        18   977     890.1 
  19        19   978     881.0 
  20        20   979     875.4 
  21        21   980     870.1 
  22        22   979     882.5 
  23        23   979     869.6 
  24        24   979     833.2 
  25        25   980     851.0 
  26        26   980     857.5 
  27        27   978     832.0 
  28        28   980     843.9 
  29        29   980     832.7 
  30        30   980     795.6 
  31        31   980     821.1 
  32        32   980     837.8 
  33        33   980     849.3 
  34        34   981     837.2 
  35        35   981     814.1 
  36        36   980     820.4 
  37        37   981     831.1 
  38        38   980     816.7 
  39        39   981     846.4 
  40        40   980     819.0 
  41        41   981     856.9 
  42        42   980     849.7 
  43        43   982     826.5 
  44        44   981     828.1 
  45        45   980     829.6 
  46        46   981     851.9 
  47        47   982     831.0 
  48        48   982     826.5 
  49        49   981     841.0 
  50        50   981     852.5 
  51        51   980     847.6 
  52        52   983     819.6 
  53        53   981     858.6 
  54        54   981     822.6 
  55        55   981     857.3 
  56        56   982     808.2 
  57        57   982     826.2 
  58        58   981     824.0 
  59        59   981     858.0 
  60        60   980     830.3 
  61        61   983     819.6 
  62        62   981     812.1 
  63        63   981     846.1 
  64        64   981     873.9 
  65        65   982     812.3 
  66        66   982     839.8 
  67        67   981     833.2 
  68        68   981     857.3 
  69        69   981     841.7 
  70        70   983     796.9 
  71        71   980     822.1 
  72        72   981     845.4 
  73        73   981     835.2 
  74        74   982     816.4 
  75        75   981     854.2 
  76        76   980     821.8 
  77        77   980     841.8 
  78        78   982     840.8 
  79        79   982     810.3 
  80        80   980     838.1 
  81        81   981     812.8 
  82        82   980     840.1 
  83        83   982     834.0 
  84        84   980     818.0 
  85        85   980     844.6 
  86        86   980     823.8 
  87        87   982     815.7 
  88        88   981     844.7 
  89        89   980     829.3 
  90        90   981     845.7 
  91        91   981     860.3 
  92        92   982     805.5 
  93        93   980     833.3 
  94        94   980     799.3 
  95        95   980     836.1 
  96        96   982     842.2 
  97        97   981     853.6 
  98        98   980     833.7 
  99        99   980     860.2 
 100       100   980     874.5 
 101       101   981     841.0 
 102       102   980     853.1 
 103       103   980     865.3 
 104       104   980     840.5 
 105       105   982     860.1 
 106       106   980     838.1 
 107       107   980     828.9 
 108       108   980     829.6 
 109       109   981     862.7 
 110       110   980     838.4 
 111       111   980     856.5 
 112       112   980     836.1 
 113       113   980     879.9 
 114       114   981     851.2 
 115       115   980     875.2 
 116       116   980     832.7 
 117       117   980     883.3 
 118       118   980     868.7 
 119       119   980     844.9 
 120       120   979     898.5 
 121       121   980     881.0 
 122       122   980     888.1 
 123       123   981     838.6 
 124       124   979     866.2 
 125       125   980     886.4 
 126       126   980     900.3 
 127       127   981     862.4 
 128       128   980     870.7 
 129       129   979     880.5 
 130       130   979     906.0 
 131       131   980     900.3 
 132       132   980     891.8 
 133       133   979     872.0 
 134       134   979     885.9 
 135       135   979     856.0 
 136       136   980     882.7 
 137       137   979     888.7 
 138       138   979     893.1 
 139       139   979     887.3 
 140       140   980     856.5 
 141       141   980     893.2 
 142       142   978     873.2 
 143       143   980     885.4 
 144       144   979     894.1 
 145       145   980     903.1 
 146       146   978     869.5 
 147       147   979     849.2 
 148       148   979     884.9 
 149       149   979     879.5 
 150       150   979     879.5 
 151       210  1000     723.3 
 152       270   997     838.8 
 153       330  1000     845.3 
 154       390   996     813.6 
 155       450   996     860.8 
 156       510   996     811.2 
 157       570   994     843.7 
 158       630   998     886.8 
 159       810   983     864.4 
 160       990   980     875.9 
 161      1170   985     793.6 
 162      1350   986     868.5 
 163      1530   981     804.3 
 164      2070   980     767.0 
 165      2691   973     737.2 
 166      3405   978     727.0 
 167      4226   978     859.9 
 168      5170   976     681.0 
 169      6256   975     868.7 
 170      7505   974     873.4 
 171      8941   977     736.9 
 172     10592   975     765.1 
 173     12491   973     786.2 
 174     14675   979     649.0 
 175     17187   975     707.4 
 176     20076   974     658.8 
 177     23398   977     669.7 
 178     27218   979     645.9 
 179     31611   980     648.3 
 180     36663   980     592.9 
 181     42473   977     664.3 
 182     49155   978     576.0 
 183     56839   980     578.2 
 184     65676   977     549.0 
 185     75839   981     549.0 
