PC/104 FIRe Fluorometer 2.0.0
 4/ 8/2025     27938
LED Color:           blue
Gain:               2000
Sample Delay (msec):    10
Number Samples:   3
STF (usec):      150
STRP (#samples):       35
STRI (usec):       60
MTF (ms):        0
MTF (#samples):     0
MTRP (#samples):        0
MTRI (usec):      100
PQLen:     4
Ambient Light Source Power: Off
PAR (uMol/m^2/s):900.00
Comment:
Depth(m):   4.0
Temperature(C):  46.4
Battery(V):  16.22

         Time    EX   Fl-Yield 
DATA--------------------------
   0         0     0       0.0 
   1         1   156    -209.4 
   2         2   817     190.1 
   3         3   953     200.8 
   4         4   969     156.2 
   5         5   972     148.1 
   6         6   973     138.7 
   7         7   973     171.6 
   8         8   977     136.1 
   9         9   974     155.7 
  10        10   975     128.5 
  11        11   976     161.2 
  12        12   977     184.6 
  13        13   977     153.5 
  14        14   977     173.7 
  15        15   977     187.0 
  16        16   978     252.9 
  17        17   980     214.3 
  18        18   977     136.1 
  19        19   978     139.1 
  20        20   979     223.7 
  21        21   980     223.8 
  22        22   979     179.1 
  23        23   979     212.5 
  24        24   979     213.8 
  25        25   980     187.4 
  26        26   980     167.7 
  27        27   978     183.4 
  28        28   980     226.2 
  29        29   980     285.0 
  30        30   980     174.5 
  31        31   980     184.0 
  32        32   980     192.2 
  33        33   980     248.6 
  34        34   981     191.3 
  35        35   981     246.7 
  36        36   980     197.3 
  37        37   981     213.7 
  38        38   980     212.6 
  39        39   981     219.8 
  40        40   980     163.6 
  41        41   981     265.0 
  42        42   980     208.5 
  43        43   982     193.8 
  44        44   981     192.0 
  45        45   980     204.4 
  46        46   981     208.0 
  47        47   982     226.4 
  48        48   982     249.2 
  49        49   981     195.0 
  50        50   981     154.9 
  51        51   980     255.1 
  52        52   983     247.2 
  53        53   981     230.7 
  54        54   981     181.1 
  55        55   981     267.8 
  56        56   982     250.5 
  57        57   982     213.8 
  58        58   981     191.0 
  59        59   981     203.5 
  60        60   980     223.1 
  61        61   983     151.2 
  62        62   981     230.7 
  63        63   981     177.0 
  64        64   981     244.0 
  65        65   982     188.1 
  66        66   982     225.7 
  67        67   981     161.1 
  68        68   981     261.3 
  69        69   981     234.5 
  70        70   983     200.1 
  71        71   980     141.2 
  72        72   981     189.3 
  73        73   981     208.6 
  74        74   982     243.4 
  75        75   981     170.2 
  76        76   980     187.1 
  77        77   980     234.4 
  78        78   982     211.1 
  79        79   982     207.7 
  80        80   980     218.7 
  81        81   981     230.7 
  82        82   980     258.2 
  83        83   982     207.1 
  84        84   980     252.0 
  85        85   980     179.9 
  86        86   980     234.7 
  87        87   982     224.0 
  88        88   981     220.9 
  89        89   980     195.9 
  90        90   981     247.7 
  91        91   981     213.7 
  92        92   982     242.4 
  93        93   980     207.1 
  94        94   980     249.3 
  95        95   980     237.4 
  96        96   982     193.5 
  97        97   981     240.6 
  98        98   980     215.0 
  99        99   980     259.5 
 100       100   980     236.4 
 101       101   981     181.4 
 102       102   980     217.0 
 103       103   980     253.7 
 104       104   980     274.8 
 105       105   982     236.3 
 106       106   980     213.9 
 107       107   980     216.3 
 108       108   980     244.2 
 109       109   981     231.4 
 110       110   980     248.0 
 111       111   980     219.7 
 112       112   980     296.6 
 113       113   980     187.1 
 114       114   981     288.1 
 115       115   980     210.2 
 116       116   980     295.6 
 117       117   980     283.7 
 118       118   980     196.9 
 119       119   980     169.7 
 120       120   979     220.6 
 121       121   980     318.0 
 122       122   980     228.6 
 123       123   981     235.1 
 124       124   979     218.2 
 125       125   980     267.0 
 126       126   980     245.9 
 127       127   981     224.6 
 128       128   980     217.0 
 129       129   979     272.0 
 130       130   979     289.1 
 131       131   980     237.4 
 132       132   980     218.4 
 133       133   979     196.8 
 134       134   979     289.8 
 135       135   979     229.5 
 136       136   980     235.0 
 137       137   979     226.1 
 138       138   979     320.4 
 139       139   979     256.0 
 140       140   980     290.8 
 141       141   980     193.9 
 142       142   978     195.6 
 143       143   980     312.2 
 144       144   979     237.7 
 145       145   980     237.8 
 146       146   978     191.5 
 147       147   979     225.7 
 148       148   979     284.0 
 149       149   979     274.1 
 150       150   979     274.1 
 151       210  1000     257.7 
 152       270   997     257.1 
 153       330  1000     292.7 
 154       390   996     289.8 
 155       450   996     287.8 
 156       510   996     186.4 
 157       570   994     309.9 
 158       630   998     298.9 
 159       810   983     268.9 
 160       990   980     248.0 
 161      1170   985     223.0 
 162      1350   986     223.5 
 163      1530   981     252.5 
 164      2070   980     311.6 
 165      2691   973     265.2 
 166      3405   978     127.1 
 167      4226   978     189.5 
 168      5170   976     258.9 
 169      6256   975     261.2 
 170      7505   974     278.2 
 171      8941   977     167.9 
 172     10592   975     200.7 
 173     12491   973     240.5 
 174     14675   979     234.3 
 175     17187   975     200.7 
 176     20076   974     181.0 
 177     23398   977     209.8 
 178     27218   979     174.7 
 179     31611   980     206.5 
 180     36663   980     160.2 
 181     42473   977     134.1 
 182     49155   978     277.1 
 183     56839   980     213.6 
 184     65676   977     193.4 
 185     75839   981     193.4 
   1         1   156     532.1 
   2         2   817     361.1 
   3         3   953     322.8 
   4         4   969     305.8 
   5         5   972     262.3 
   6         6   973     266.9 
   7         7   973     316.5 
   8         8   977     348.3 
   9         9   974     408.3 
  10        10   975     440.3 
  11        11   976     444.0 
  12        12   977     478.7 
  13        13   977     507.3 
  14        14   977     441.8 
  15        15   977     494.4 
  16        16   978     521.1 
  17        17   980     459.5 
  18        18   977     508.4 
  19        19   978     471.0 
  20        20   979     435.8 
  21        21   980     406.8 
  22        22   979     403.8 
  23        23   979     380.0 
  24        24   979     383.4 
  25        25   980     399.7 
  26        26   980     379.9 
  27        27   978     345.9 
  28        28   980     280.3 
  29        29   980     378.6 
  30        30   980     304.8 
  31        31   980     334.0 
  32        32   980     293.5 
  33        33   980     362.6 
  34        34   981     364.3 
  35        35   981     311.9 
  36        36   980     305.1 
  37        37   981     344.9 
  38        38   980     369.4 
  39        39   981     378.9 
  40        40   980     372.8 
  41        41   981     340.1 
  42        42   980     348.6 
  43        43   982     380.5 
  44        44   981     322.5 
  45        45   980     331.0 
  46        46   981     349.3 
  47        47   982     380.5 
  48        48   982     339.4 
  49        49   981     324.5 
  50        50   981     291.5 
  51        51   980     349.7 
  52        52   983     346.6 
  53        53   981     404.3 
  54        54   981     380.6 
  55        55   981     373.1 
  56        56   982     380.2 
  57        57   982     371.7 
  58        58   981     340.1 
  59        59   981     386.7 
  60        60   980     378.6 
  61        61   983     414.0 
  62        62   981     393.1 
  63        63   981     388.7 
  64        64   981     442.1 
  65        65   982     370.7 
  66        66   982     414.8 
  67        67   981     409.1 
  68        68   981     408.4 
  69        69   981     390.1 
  70        70   983     422.2 
  71        71   980     444.2 
  72        72   981     394.8 
  73        73   981     431.9 
  74        74   982     464.7 
  75        75   981     434.6 
  76        76   980     378.9 
  77        77   980     410.2 
  78        78   982     402.9 
  79        79   982     354.7 
  80        80   980     367.0 
  81        81   981     397.9 
  82        82   980     414.6 
  83        83   982     346.9 
  84        84   980     405.8 
  85        85   980     394.6 
  86        86   980     382.3 
  87        87   982     365.2 
  88        88   981     358.5 
  89        89   980     439.1 
  90        90   981     426.4 
  91        91   981     376.1 
  92        92   982     334.7 
  93        93   980     366.0 
  94        94   980     410.9 
  95        95   980     374.5 
  96        96   982     367.6 
  97        97   981     361.5 
  98        98   980     370.4 
  99        99   980     384.4 
 100       100   980     387.8 
 101       101   981     369.4 
 102       102   980     372.1 
 103       103   980     401.0 
 104       104   980     366.7 
 105       105   982     358.5 
 106       106   980     326.9 
 107       107   980     359.2 
 108       108   980     401.7 
 109       109   981     406.7 
 110       110   980     406.5 
 111       111   980     334.0 
 112       112   980     354.1 
 113       113   980     327.6 
 114       114   981     358.8 
 115       115   980     327.9 
 116       116   980     367.0 
 117       117   980     385.0 
 118       118   980     343.2 
 119       119   980     338.4 
 120       120   979     308.1 
 121       121   980     414.3 
 122       122   980     360.5 
 123       123   981     350.7 
 124       124   979     370.8 
 125       125   980     349.0 
 126       126   980     350.0 
 127       127   981     338.8 
 128       128   980     335.7 
 129       129   979     294.2 
 130       130   979     419.5 
 131       131   980     368.7 
 132       132   980     383.0 
 133       133   979     339.5 
 134       134   979     377.3 
 135       135   979     371.5 
 136       136   980     352.4 
 137       137   979     366.4 
 138       138   979     336.4 
 139       139   979     387.1 
 140       140   980     370.1 
 141       141   980     340.1 
 142       142   978     377.3 
 143       143   980     303.4 
 144       144   979     332.0 
 145       145   980     347.6 
 146       146   978     345.6 
 147       147   979     371.8 
 148       148   979     335.7 
 149       149   979     363.3 
 150       150   979     363.3 
 151       210  1000     202.3 
 152       270   997     318.3 
 153       330  1000     326.0 
 154       390   996     299.9 
 155       450   996     264.1 
 156       510   996     336.0 
 157       570   994     384.6 
 158       630   998     404.5 
 159       810   983     406.6 
 160       990   980     332.7 
 161      1170   985     423.4 
 162      1350   986     333.0 
 163      1530   981     304.8 
 164      2070   980     376.5 
 165      2691   973     204.2 
 166      3405   978     334.0 
 167      4226   978     325.5 
 168      5170   976     211.1 
 169      6256   975     335.7 
 170      7505   974     370.3 
 171      8941   977     354.8 
 172     10592   975     366.2 
 173     12491   973     373.1 
 174     14675   979     254.3 
 175     17187   975     223.6 
 176     20076   974     319.3 
 177     23398   977     216.3 
 178     27218   979     219.3 
 179     31611   980     321.4 
 180     36663   980     182.0 
 181     42473   977     358.2 
 182     49155   978     380.0 
 183     56839   980     273.1 
 184     65676   977     210.5 
 185     75839   981     210.5 
