PC/104 FIRe Fluorometer 2.0.0
 4/ 8/2025     26726
LED Color:           blue
Gain:               1400
Sample Delay (msec):    10
Number Samples:   3
STF (usec):      150
STRP (#samples):       35
STRI (usec):       60
MTF (ms):        0
MTF (#samples):     0
MTRP (#samples):        0
MTRI (usec):      100
PQLen:     4
Ambient Light Source Power: Off
PAR (uMol/m^2/s):630.00
Comment:
Depth(m):   3.5
Temperature(C):  40.1
Battery(V):  16.53

         Time    EX   Fl-Yield 
DATA--------------------------
   0         0     0       0.0 
   1         1   156     254.3 
   2         2   817     301.9 
   3         3   953     305.0 
   4         4   969     321.6 
   5         5   972     324.4 
   6         6   973     333.3 
   7         7   973     333.0 
   8         8   977     341.5 
   9         9   974     361.7 
  10        10   975     367.5 
  11        11   976     373.6 
  12        12   977     376.3 
  13        13   977     374.6 
  14        14   977     397.5 
  15        15   977     391.0 
  16        16   978     407.0 
  17        17   980     409.9 
  18        18   977     416.2 
  19        19   978     428.4 
  20        20   979     419.1 
  21        21   980     422.1 
  22        22   979     436.5 
  23        23   979     444.3 
  24        24   979     439.6 
  25        25   980     451.4 
  26        26   980     450.7 
  27        27   978     453.6 
  28        28   980     454.1 
  29        29   980     468.4 
  30        30   980     450.0 
  31        31   980     462.2 
  32        32   980     461.2 
  33        33   980     482.3 
  34        34   981     477.1 
  35        35   981     482.2 
  36        36   980     465.3 
  37        37   981     489.0 
  38        38   980     490.8 
  39        39   981     475.4 
  40        40   980     489.8 
  41        41   981     491.3 
  42        42   980     485.0 
  43        43   982     479.0 
  44        44   981     489.0 
  45        45   980     494.6 
  46        46   981     511.7 
  47        47   982     499.7 
  48        48   982     502.7 
  49        49   981     499.5 
  50        50   981     502.2 
  51        51   980     494.6 
  52        52   983     504.6 
  53        53   981     490.7 
  54        54   981     507.3 
  55        55   981     499.8 
  56        56   982     488.5 
  57        57   982     499.0 
  58        58   981     510.0 
  59        59   981     497.5 
  60        60   980     496.6 
  61        61   983     508.6 
  62        62   981     486.2 
  63        63   981     517.5 
  64        64   981     492.7 
  65        65   982     502.7 
  66        66   982     487.8 
  67        67   981     512.4 
  68        68   981     501.9 
  69        69   981     477.1 
  70        70   983     491.7 
  71        71   980     500.7 
  72        72   981     505.3 
  73        73   981     494.4 
  74        74   982     479.3 
  75        75   981     494.4 
  76        76   980     491.8 
  77        77   980     502.7 
  78        78   982     494.6 
  79        79   982     489.5 
  80        80   980     497.6 
  81        81   981     501.5 
  82        82   980     493.5 
  83        83   982     492.5 
  84        84   980     503.1 
  85        85   980     497.6 
  86        86   980     483.3 
  87        87   982     474.5 
  88        88   981     490.7 
  89        89   980     501.7 
  90        90   981     486.2 
  91        91   981     486.2 
  92        92   982     484.7 
  93        93   980     505.4 
  94        94   980     496.6 
  95        95   980     490.1 
  96        96   982     496.6 
  97        97   981     483.2 
  98        98   980     497.3 
  99        99   980     491.8 
 100       100   980     491.2 
 101       101   981     494.4 
 102       102   980     486.1 
 103       103   980     493.2 
 104       104   980     494.6 
 105       105   982     480.0 
 106       106   980     484.0 
 107       107   980     484.4 
 108       108   980     480.6 
 109       109   981     490.0 
 110       110   980     481.0 
 111       111   980     493.9 
 112       112   980     470.1 
 113       113   980     476.5 
 114       114   981     476.4 
 115       115   980     483.0 
 116       116   980     484.7 
 117       117   980     466.7 
 118       118   980     469.4 
 119       119   980     495.9 
 120       120   979     477.0 
 121       121   980     478.2 
 122       122   980     478.2 
 123       123   981     477.7 
 124       124   979     487.6 
 125       125   980     465.3 
 126       126   980     476.5 
 127       127   981     489.0 
 128       128   980     485.4 
 129       129   979     484.5 
 130       130   979     477.0 
 131       131   980     498.0 
 132       132   980     487.1 
 133       133   979     500.5 
 134       134   979     480.8 
 135       135   979     493.7 
 136       136   980     500.3 
 137       137   979     503.2 
 138       138   979     494.4 
 139       139   979     495.4 
 140       140   980     489.5 
 141       141   980     504.8 
 142       142   978     491.1 
 143       143   980     490.8 
 144       144   979     480.8 
 145       145   980     486.4 
 146       146   978     499.0 
 147       147   979     485.2 
 148       148   979     501.5 
 149       149   979     504.9 
 150       150   979     504.9 
 151       210  1000     443.3 
 152       270   997     459.0 
 153       330  1000     410.0 
 154       390   996     441.8 
 155       450   996     413.3 
 156       510   996     431.1 
 157       570   994     399.7 
 158       630   998     394.1 
 159       810   983     367.9 
 160       990   980     388.8 
 161      1170   985     340.1 
 162      1350   986     350.2 
 163      1530   981     382.9 
 164      2070   980     328.9 
 165      2691   973     320.3 
 166      3405   978     297.5 
 167      4226   978     333.0 
 168      5170   976     309.4 
 169      6256   975     289.6 
 170      7505   974     285.1 
 171      8941   977     309.1 
 172     10592   975     314.2 
 173     12491   973     294.6 
 174     14675   979     312.2 
 175     17187   975     293.7 
 176     20076   974     294.3 
 177     23398   977     290.0 
 178     27218   979     293.8 
 179     31611   980     323.1 
 180     36663   980     307.5 
 181     42473   977     293.4 
 182     49155   978     300.3 
 183     56839   980     277.9 
 184     65676   977     310.5 
 185     75839   981     310.5 
   1         1   156     435.9 
   2         2   817     537.3 
   3         3   953     534.1 
   4         4   969     536.3 
   5         5   972     523.3 
   6         6   973     541.3 
   7         7   973     538.2 
   8         8   977     548.3 
   9         9   974     538.7 
  10        10   975     551.5 
  11        11   976     569.3 
  12        12   977     588.5 
  13        13   977     589.6 
  14        14   977     594.3 
  15        15   977     588.9 
  16        16   978     601.6 
  17        17   980     581.3 
  18        18   977     580.0 
  19        19   978     565.1 
  20        20   979     571.3 
  21        21   980     577.9 
  22        22   979     560.8 
  23        23   979     540.0 
  24        24   979     551.2 
  25        25   980     558.2 
  26        26   980     542.9 
  27        27   978     539.2 
  28        28   980     555.1 
  29        29   980     543.5 
  30        30   980     552.4 
  31        31   980     548.3 
  32        32   980     558.2 
  33        33   980     551.0 
  34        34   981     551.1 
  35        35   981     559.3 
  36        36   980     553.1 
  37        37   981     555.2 
  38        38   980     565.3 
  39        39   981     571.9 
  40        40   980     556.1 
  41        41   981     581.0 
  42        42   980     570.1 
  43        43   982     567.5 
  44        44   981     565.7 
  45        45   980     553.7 
  46        46   981     578.0 
  47        47   982     589.3 
  48        48   982     579.1 
  49        49   981     569.5 
  50        50   981     571.9 
  51        51   980     577.6 
  52        52   983     584.3 
  53        53   981     582.4 
  54        54   981     571.2 
  55        55   981     574.9 
  56        56   982     579.4 
  57        57   982     580.4 
  58        58   981     563.0 
  59        59   981     573.2 
  60        60   980     557.8 
  61        61   983     580.9 
  62        62   981     556.6 
  63        63   981     572.9 
  64        64   981     577.6 
  65        65   982     558.4 
  66        66   982     548.9 
  67        67   981     568.1 
  68        68   981     576.3 
  69        69   981     565.7 
  70        70   983     562.2 
  71        71   980     575.2 
  72        72   981     574.9 
  73        73   981     578.3 
  74        74   982     561.4 
  75        75   981     576.6 
  76        76   980     559.9 
  77        77   980     559.5 
  78        78   982     560.8 
  79        79   982     559.7 
  80        80   980     563.3 
  81        81   981     574.9 
  82        82   980     566.7 
  83        83   982     560.8 
  84        84   980     573.8 
  85        85   980     564.6 
  86        86   980     562.9 
  87        87   982     565.2 
  88        88   981     569.1 
  89        89   980     569.7 
  90        90   981     570.2 
  91        91   981     560.7 
  92        92   982     565.2 
  93        93   980     573.8 
  94        94   980     574.1 
  95        95   980     563.9 
  96        96   982     563.8 
  97        97   981     568.5 
  98        98   980     571.8 
  99        99   980     588.1 
 100       100   980     563.6 
 101       101   981     569.1 
 102       102   980     572.8 
 103       103   980     579.9 
 104       104   980     574.5 
 105       105   982     571.3 
 106       106   980     563.9 
 107       107   980     576.9 
 108       108   980     571.1 
 109       109   981     575.3 
 110       110   980     581.0 
 111       111   980     566.7 
 112       112   980     568.7 
 113       113   980     566.7 
 114       114   981     582.4 
 115       115   980     582.0 
 116       116   980     581.3 
 117       117   980     578.2 
 118       118   980     575.5 
 119       119   980     571.4 
 120       120   979     589.4 
 121       121   980     579.3 
 122       122   980     588.4 
 123       123   981     569.8 
 124       124   979     599.3 
 125       125   980     591.2 
 126       126   980     582.3 
 127       127   981     570.8 
 128       128   980     584.0 
 129       129   979     575.4 
 130       130   979     581.9 
 131       131   980     576.5 
 132       132   980     589.8 
 133       133   979     594.1 
 134       134   979     581.5 
 135       135   979     582.2 
 136       136   980     583.3 
 137       137   979     583.6 
 138       138   979     581.9 
 139       139   979     570.3 
 140       140   980     578.2 
 141       141   980     578.6 
 142       142   978     577.4 
 143       143   980     570.7 
 144       144   979     586.0 
 145       145   980     583.7 
 146       146   978     577.0 
 147       147   979     589.7 
 148       148   979     572.0 
 149       149   979     571.0 
 150       150   979     571.0 
 151       210  1000     517.7 
 152       270   997     567.7 
 153       330  1000     556.0 
 154       390   996     534.8 
 155       450   996     573.0 
 156       510   996     520.7 
 157       570   994     529.5 
 158       630   998     536.1 
 159       810   983     533.7 
 160       990   980     508.8 
 161      1170   985     516.8 
 162      1350   986     511.8 
 163      1530   981     505.9 
 164      2070   980     497.6 
 165      2691   973     519.0 
 166      3405   978     479.9 
 167      4226   978     496.6 
 168      5170   976     465.2 
 169      6256   975     469.1 
 170      7505   974     422.0 
 171      8941   977     469.5 
 172     10592   975     470.8 
 173     12491   973     382.7 
 174     14675   979     414.4 
 175     17187   975     423.2 
 176     20076   974     411.4 
 177     23398   977     396.8 
 178     27218   979     360.2 
 179     31611   980     399.3 
 180     36663   980     360.5 
 181     42473   977     338.1 
 182     49155   978     351.4 
 183     56839   980     361.2 
 184     65676   977     365.7 
 185     75839   981     365.7 
