PC/104 FIRe Fluorometer 2.0.0
 4/ 8/2025     29546
LED Color:           blue
Gain:               1900
Sample Delay (msec):    10
Number Samples:   3
STF (usec):      150
STRP (#samples):       35
STRI (usec):       60
MTF (ms):        0
MTF (#samples):     0
MTRP (#samples):        0
MTRI (usec):      100
PQLen:     4
Ambient Light Source Power: Off
PAR (uMol/m^2/s):900.00
Comment:
Depth(m):   2.7
Temperature(C):  52.6
Battery(V):  15.97

         Time    EX   Fl-Yield 
DATA--------------------------
   0         0     0       0.0 
   1         1   156     207.3 
   2         2   817     204.0 
   3         3   953     205.0 
   4         4   969     212.2 
   5         5   972     290.8 
   6         6   973     258.0 
   7         7   973     193.9 
   8         8   977     217.7 
   9         9   974     279.3 
  10        10   975     282.4 
  11        11   976     252.7 
  12        12   977     251.8 
  13        13   977     227.6 
  14        14   977     268.2 
  15        15   977     296.1 
  16        16   978     260.1 
  17        17   980     285.7 
  18        18   977     289.7 
  19        19   978     261.8 
  20        20   979     285.7 
  21        21   980     332.7 
  22        22   979     330.9 
  23        23   979     359.9 
  24        24   979     304.4 
  25        25   980     289.8 
  26        26   980     338.4 
  27        27   978     339.8 
  28        28   980     346.6 
  29        29   980     341.2 
  30        30   980     306.5 
  31        31   980     339.5 
  32        32   980     363.9 
  33        33   980     381.3 
  34        34   981     351.3 
  35        35   981     356.8 
  36        36   980     382.0 
  37        37   981     375.8 
  38        38   980     319.7 
  39        39   981     367.0 
  40        40   980     404.1 
  41        41   981     381.9 
  42        42   980     367.7 
  43        43   982     377.5 
  44        44   981     378.9 
  45        45   980     416.7 
  46        46   981     392.8 
  47        47   982     362.2 
  48        48   982     339.1 
  49        49   981     423.0 
  50        50   981     377.2 
  51        51   980     376.2 
  52        52   983     354.0 
  53        53   981     357.1 
  54        54   981     368.7 
  55        55   981     379.9 
  56        56   982     385.9 
  57        57   982     374.4 
  58        58   981     383.3 
  59        59   981     413.5 
  60        60   980     403.7 
  61        61   983     398.4 
  62        62   981     406.7 
  63        63   981     442.4 
  64        64   981     398.6 
  65        65   982     369.0 
  66        66   982     417.2 
  67        67   981     405.4 
  68        68   981     399.9 
  69        69   981     375.5 
  70        70   983     439.8 
  71        71   980     415.3 
  72        72   981     419.3 
  73        73   981     393.8 
  74        74   982     395.1 
  75        75   981     435.9 
  76        76   980     470.7 
  77        77   980     398.6 
  78        78   982     389.0 
  79        79   982     406.7 
  80        80   980     454.4 
  81        81   981     409.1 
  82        82   980     398.6 
  83        83   982     401.2 
  84        84   980     439.1 
  85        85   980     415.3 
  86        86   980     418.7 
  87        87   982     432.8 
  88        88   981     385.3 
  89        89   980     357.1 
  90        90   981     422.7 
  91        91   981     393.5 
  92        92   982     399.2 
  93        93   980     398.6 
  94        94   980     410.5 
  95        95   980     403.4 
  96        96   982     359.1 
  97        97   981     370.0 
  98        98   980     388.1 
  99        99   980     424.8 
 100       100   980     379.9 
 101       101   981     387.0 
 102       102   980     371.4 
 103       103   980     430.6 
 104       104   980     405.8 
 105       105   982     376.8 
 106       106   980     347.6 
 107       107   980     402.7 
 108       108   980     376.9 
 109       109   981     373.1 
 110       110   980     439.1 
 111       111   980     371.8 
 112       112   980     382.0 
 113       113   980     398.0 
 114       114   981     364.6 
 115       115   980     418.4 
 116       116   980     406.1 
 117       117   980     395.2 
 118       118   980     343.2 
 119       119   980     379.6 
 120       120   979     395.3 
 121       121   980     440.5 
 122       122   980     383.3 
 123       123   981     354.7 
 124       124   979     352.4 
 125       125   980     386.7 
 126       126   980     438.1 
 127       127   981     369.0 
 128       128   980     393.2 
 129       129   979     322.4 
 130       130   979     397.0 
 131       131   980     382.0 
 132       132   980     318.4 
 133       133   979     391.9 
 134       134   979     354.8 
 135       135   979     392.9 
 136       136   980     335.7 
 137       137   979     309.5 
 138       138   979     345.3 
 139       139   979     368.4 
 140       140   980     341.8 
 141       141   980     376.5 
 142       142   978     334.7 
 143       143   980     376.5 
 144       144   979     369.1 
 145       145   980     335.0 
 146       146   978     387.9 
 147       147   979     323.5 
 148       148   979     357.2 
 149       149   979     365.3 
 150       150   979     365.3 
 151       210  1000     400.3 
 152       270   997     389.2 
 153       330  1000     334.0 
 154       390   996     348.7 
 155       450   996     274.8 
 156       510   996     296.5 
 157       570   994     393.0 
 158       630   998     296.6 
 159       810   983     412.3 
 160       990   980     282.3 
 161      1170   985     209.5 
 162      1350   986     252.5 
 163      1530   981     360.9 
 164      2070   980     299.3 
 165      2691   973     298.7 
 166      3405   978     202.8 
 167      4226   978     315.3 
 168      5170   976     281.1 
 169      6256   975     234.5 
 170      7505   974     236.1 
 171      8941   977     335.0 
 172     10592   975     362.7 
 173     12491   973     343.3 
 174     14675   979     262.9 
 175     17187   975     251.3 
 176     20076   974     221.1 
 177     23398   977     266.8 
 178     27218   979     198.5 
 179     31611   980     235.4 
 180     36663   980     300.3 
 181     42473   977     349.4 
 182     49155   978     259.4 
 183     56839   980     264.6 
 184     65676   977     303.3 
 185     75839   981     303.3 
   1         1   156     128.2 
   2         2   817     439.0 
   3         3   953     501.9 
   4         4   969     458.5 
   5         5   972     422.8 
   6         6   973     397.1 
   7         7   973     490.6 
   8         8   977     482.4 
   9         9   974     522.9 
  10        10   975     540.2 
  11        11   976     547.1 
  12        12   977     573.2 
  13        13   977     580.7 
  14        14   977     580.0 
  15        15   977     609.0 
  16        16   978     608.7 
  17        17   980     604.4 
  18        18   977     540.8 
  19        19   978     563.4 
  20        20   979     546.8 
  21        21   980     548.6 
  22        22   979     514.8 
  23        23   979     475.7 
  24        24   979     519.2 
  25        25   980     514.3 
  26        26   980     473.1 
  27        27   978     496.6 
  28        28   980     478.6 
  29        29   980     493.2 
  30        30   980     491.8 
  31        31   980     482.0 
  32        32   980     453.7 
  33        33   980     446.9 
  34        34   981     504.6 
  35        35   981     490.3 
  36        36   980     483.7 
  37        37   981     436.6 
  38        38   980     534.0 
  39        39   981     503.9 
  40        40   980     478.9 
  41        41   981     413.9 
  42        42   980     447.6 
  43        43   982     536.3 
  44        44   981     528.7 
  45        45   980     468.0 
  46        46   981     448.5 
  47        47   982     457.2 
  48        48   982     474.2 
  49        49   981     457.0 
  50        50   981     463.5 
  51        51   980     505.8 
  52        52   983     460.5 
  53        53   981     448.2 
  54        54   981     477.4 
  55        55   981     485.9 
  56        56   982     505.1 
  57        57   982     480.7 
  58        58   981     453.3 
  59        59   981     519.9 
  60        60   980     504.1 
  61        61   983     495.4 
  62        62   981     513.8 
  63        63   981     510.0 
  64        64   981     490.3 
  65        65   982     529.9 
  66        66   982     521.0 
  67        67   981     500.8 
  68        68   981     520.9 
  69        69   981     503.6 
  70        70   983     489.0 
  71        71   980     477.9 
  72        72   981     483.5 
  73        73   981     517.5 
  74        74   982     546.5 
  75        75   981     494.1 
  76        76   980     489.5 
  77        77   980     486.1 
  78        78   982     520.4 
  79        79   982     513.2 
  80        80   980     468.0 
  81        81   981     465.2 
  82        82   980     503.7 
  83        83   982     524.1 
  84        84   980     469.4 
  85        85   980     467.3 
  86        86   980     468.7 
  87        87   982     485.1 
  88        88   981     458.4 
  89        89   980     441.2 
  90        90   981     487.6 
  91        91   981     513.1 
  92        92   982     518.3 
  93        93   980     487.4 
  94        94   980     471.8 
  95        95   980     483.3 
  96        96   982     546.2 
  97        97   981     516.1 
  98        98   980     498.0 
  99        99   980     501.0 
 100       100   980     539.1 
 101       101   981     538.9 
 102       102   980     503.7 
 103       103   980     460.2 
 104       104   980     478.2 
 105       105   982     507.1 
 106       106   980     510.9 
 107       107   980     512.9 
 108       108   980     471.8 
 109       109   981     538.6 
 110       110   980     512.2 
 111       111   980     445.9 
 112       112   980     505.4 
 113       113   980     527.9 
 114       114   981     517.2 
 115       115   980     515.3 
 116       116   980     487.4 
 117       117   980     510.5 
 118       118   980     516.0 
 119       119   980     570.4 
 120       120   979     497.4 
 121       121   980     499.0 
 122       122   980     490.1 
 123       123   981     548.1 
 124       124   979     527.7 
 125       125   980     517.3 
 126       126   980     496.3 
 127       127   981     533.5 
 128       128   980     487.8 
 129       129   979     492.3 
 130       130   979     518.9 
 131       131   980     527.2 
 132       132   980     516.3 
 133       133   979     498.8 
 134       134   979     464.4 
 135       135   979     469.9 
 136       136   980     518.4 
 137       137   979     504.6 
 138       138   979     487.2 
 139       139   979     523.3 
 140       140   980     459.2 
 141       141   980     510.9 
 142       142   978     526.6 
 143       143   980     488.8 
 144       144   979     470.2 
 145       145   980     516.7 
 146       146   978     510.9 
 147       147   979     476.3 
 148       148   979     450.8 
 149       149   979     482.8 
 150       150   979     482.8 
 151       210  1000     498.7 
 152       270   997     466.4 
 153       330  1000     446.7 
 154       390   996     404.3 
 155       450   996     451.1 
 156       510   996     467.9 
 157       570   994     449.4 
 158       630   998     551.8 
 159       810   983     394.7 
 160       990   980     508.2 
 161      1170   985     544.8 
 162      1350   986     508.1 
 163      1530   981     524.0 
 164      2070   980     517.3 
 165      2691   973     494.3 
 166      3405   978     464.2 
 167      4226   978     512.3 
 168      5170   976     388.0 
 169      6256   975     409.2 
 170      7505   974     398.7 
 171      8941   977     344.9 
 172     10592   975     432.1 
 173     12491   973     486.5 
 174     14675   979     395.3 
 175     17187   975     453.7 
 176     20076   974     450.7 
 177     23398   977     427.5 
 178     27218   979     438.2 
 179     31611   980     375.5 
 180     36663   980     424.1 
 181     42473   977     286.6 
 182     49155   978     458.1 
 183     56839   980     309.9 
 184     65676   977     288.6 
 185     75839   981     288.6 
