PC/104 FIRe Fluorometer 2.0.0
 4/ 8/2025     33178
LED Color:           blue
Gain:               1800
Sample Delay (msec):    10
Number Samples:   3
STF (usec):      150
STRP (#samples):       35
STRI (usec):       60
MTF (ms):        0
MTF (#samples):     0
MTRP (#samples):        0
MTRI (usec):      100
PQLen:     4
Ambient Light Source Power: Off
PAR (uMol/m^2/s):525.52
Comment:
Depth(m):   1.1
Temperature(C):  66.1
Battery(V):  15.16

         Time    EX   Fl-Yield 
DATA--------------------------
   0         0     0       0.0 
   1         1   156     260.7 
   2         2   817     288.5 
   3         3   953     309.2 
   4         4   969     289.3 
   5         5   972     330.6 
   6         6   973     341.6 
   7         7   973     327.9 
   8         8   977     338.1 
   9         9   974     328.5 
  10        10   975     344.3 
  11        11   976     350.4 
  12        12   977     365.7 
  13        13   977     347.7 
  14        14   977     372.2 
  15        15   977     386.2 
  16        16   978     382.8 
  17        17   980     387.1 
  18        18   977     424.4 
  19        19   978     397.1 
  20        20   979     436.8 
  21        21   980     417.3 
  22        22   979     387.1 
  23        23   979     445.4 
  24        24   979     411.0 
  25        25   980     437.1 
  26        26   980     425.5 
  27        27   978     444.1 
  28        28   980     471.1 
  29        29   980     423.1 
  30        30   980     402.7 
  31        31   980     441.5 
  32        32   980     463.6 
  33        33   980     448.6 
  34        34   981     451.9 
  35        35   981     435.9 
  36        36   980     437.1 
  37        37   981     469.6 
  38        38   980     449.7 
  39        39   981     412.2 
  40        40   980     423.1 
  41        41   981     445.8 
  42        42   980     451.7 
  43        43   982     467.4 
  44        44   981     497.1 
  45        45   980     469.4 
  46        46   981     470.3 
  47        47   982     450.4 
  48        48   982     468.4 
  49        49   981     482.2 
  50        50   981     481.8 
  51        51   980     489.5 
  52        52   983     473.4 
  53        53   981     421.3 
  54        54   981     488.3 
  55        55   981     484.5 
  56        56   982     501.7 
  57        57   982     457.9 
  58        58   981     485.9 
  59        59   981     476.4 
  60        60   980     484.0 
  61        61   983     452.0 
  62        62   981     475.4 
  63        63   981     487.3 
  64        64   981     489.3 
  65        65   982     469.5 
  66        66   982     442.3 
  67        67   981     513.8 
  68        68   981     480.8 
  69        69   981     495.1 
  70        70   983     470.3 
  71        71   980     443.5 
  72        72   981     470.6 
  73        73   981     485.6 
  74        74   982     486.4 
  75        75   981     462.5 
  76        76   980     473.8 
  77        77   980     477.6 
  78        78   982     461.3 
  79        79   982     464.4 
  80        80   980     489.5 
  81        81   981     479.8 
  82        82   980     473.8 
  83        83   982     462.3 
  84        84   980     466.3 
  85        85   980     490.8 
  86        86   980     495.6 
  87        87   982     465.0 
  88        88   981     476.7 
  89        89   980     476.2 
  90        90   981     505.9 
  91        91   981     466.9 
  92        92   982     459.9 
  93        93   980     488.8 
  94        94   980     464.3 
  95        95   980     472.8 
  96        96   982     482.7 
  97        97   981     449.2 
  98        98   980     479.6 
  99        99   980     454.4 
 100       100   980     474.5 
 101       101   981     498.8 
 102       102   980     492.5 
 103       103   980     458.2 
 104       104   980     482.3 
 105       105   982     455.5 
 106       106   980     477.9 
 107       107   980     475.5 
 108       108   980     467.0 
 109       109   981     468.2 
 110       110   980     468.7 
 111       111   980     463.9 
 112       112   980     490.1 
 113       113   980     466.3 
 114       114   981     472.3 
 115       115   980     474.5 
 116       116   980     506.1 
 117       117   980     472.8 
 118       118   980     448.0 
 119       119   980     451.7 
 120       120   979     496.1 
 121       121   980     485.4 
 122       122   980     480.6 
 123       123   981     465.9 
 124       124   979     460.7 
 125       125   980     463.6 
 126       126   980     473.5 
 127       127   981     475.7 
 128       128   980     460.2 
 129       129   979     472.3 
 130       130   979     475.7 
 131       131   980     481.3 
 132       132   980     486.4 
 133       133   979     454.2 
 134       134   979     507.0 
 135       135   979     482.5 
 136       136   980     473.5 
 137       137   979     485.5 
 138       138   979     513.8 
 139       139   979     483.1 
 140       140   980     464.3 
 141       141   980     452.7 
 142       142   978     515.3 
 143       143   980     518.4 
 144       144   979     500.5 
 145       145   980     471.8 
 146       146   978     473.1 
 147       147   979     515.5 
 148       148   979     512.8 
 149       149   979     517.9 
 150       150   979     517.9 
 151       210  1000     475.3 
 152       270   997     533.6 
 153       330  1000     432.3 
 154       390   996     485.9 
 155       450   996     442.4 
 156       510   996     445.4 
 157       570   994     458.4 
 158       630   998     417.2 
 159       810   983     388.3 
 160       990   980     420.1 
 161      1170   985     383.1 
 162      1350   986     351.9 
 163      1530   981     416.6 
 164      2070   980     372.4 
 165      2691   973     389.9 
 166      3405   978     415.5 
 167      4226   978     298.6 
 168      5170   976     357.2 
 169      6256   975     299.1 
 170      7505   974     406.6 
 171      8941   977     343.6 
 172     10592   975     349.7 
 173     12491   973     358.3 
 174     14675   979     375.6 
 175     17187   975     335.0 
 176     20076   974     307.7 
 177     23398   977     316.6 
 178     27218   979     420.2 
 179     31611   980     296.9 
 180     36663   980     291.8 
 181     42473   977     345.3 
 182     49155   978     311.9 
 183     56839   980     335.0 
 184     65676   977     278.4 
 185     75839   981     278.4 
   1         1   156     228.6 
   2         2   817     501.0 
   3         3   953     535.9 
   4         4   969     534.2 
   5         5   972     498.6 
   6         6   973     506.0 
   7         7   973     535.1 
   8         8   977     576.3 
   9         9   974     563.0 
  10        10   975     536.4 
  11        11   976     560.8 
  12        12   977     578.3 
  13        13   977     622.3 
  14        14   977     545.5 
  15        15   977     571.5 
  16        16   978     590.0 
  17        17   980     619.4 
  18        18   977     562.6 
  19        19   978     543.6 
  20        20   979     542.7 
  21        21   980     602.4 
  22        22   979     569.3 
  23        23   979     565.5 
  24        24   979     545.8 
  25        25   980     568.7 
  26        26   980     583.7 
  27        27   978     546.7 
  28        28   980     561.2 
  29        29   980     553.4 
  30        30   980     578.6 
  31        31   980     548.3 
  32        32   980     553.1 
  33        33   980     541.8 
  34        34   981     629.3 
  35        35   981     608.6 
  36        36   980     561.2 
  37        37   981     574.9 
  38        38   980     588.4 
  39        39   981     613.7 
  40        40   980     581.0 
  41        41   981     560.3 
  42        42   980     577.6 
  43        43   982     594.4 
  44        44   981     632.3 
  45        45   980     589.8 
  46        46   981     549.1 
  47        47   982     573.3 
  48        48   982     631.4 
  49        49   981     592.6 
  50        50   981     603.1 
  51        51   980     582.7 
  52        52   983     627.0 
  53        53   981     597.0 
  54        54   981     585.1 
  55        55   981     561.0 
  56        56   982     599.8 
  57        57   982     629.0 
  58        58   981     577.6 
  59        59   981     568.5 
  60        60   980     584.0 
  61        61   983     623.6 
  62        62   981     637.1 
  63        63   981     576.6 
  64        64   981     566.8 
  65        65   982     598.8 
  66        66   982     601.2 
  67        67   981     575.6 
  68        68   981     562.0 
  69        69   981     590.2 
  70        70   983     595.1 
  71        71   980     545.6 
  72        72   981     582.1 
  73        73   981     591.6 
  74        74   982     592.7 
  75        75   981     622.8 
  76        76   980     564.6 
  77        77   980     563.3 
  78        78   982     597.8 
  79        79   982     600.5 
  80        80   980     575.2 
  81        81   981     567.8 
  82        82   980     585.4 
  83        83   982     615.8 
  84        84   980     607.1 
  85        85   980     566.0 
  86        86   980     540.8 
  87        87   982     606.6 
  88        88   981     611.6 
  89        89   980     592.2 
  90        90   981     562.4 
  91        91   981     566.4 
  92        92   982     617.8 
  93        93   980     608.5 
  94        94   980     557.1 
  95        95   980     557.1 
  96        96   982     590.0 
  97        97   981     606.5 
  98        98   980     559.9 
  99        99   980     531.3 
 100       100   980     610.5 
 101       101   981     589.9 
 102       102   980     570.1 
 103       103   980     581.6 
 104       104   980     561.6 
 105       105   982     612.7 
 106       106   980     565.0 
 107       107   980     545.9 
 108       108   980     551.0 
 109       109   981     572.5 
 110       110   980     620.4 
 111       111   980     576.2 
 112       112   980     568.4 
 113       113   980     583.0 
 114       114   981     619.4 
 115       115   980     604.8 
 116       116   980     584.0 
 117       117   980     582.0 
 118       118   980     612.9 
 119       119   980     629.6 
 120       120   979     562.5 
 121       121   980     567.7 
 122       122   980     551.4 
 123       123   981     616.7 
 124       124   979     580.5 
 125       125   980     580.6 
 126       126   980     578.2 
 127       127   981     604.5 
 128       128   980     606.5 
 129       129   979     563.2 
 130       130   979     550.2 
 131       131   980     599.0 
 132       132   980     632.3 
 133       133   979     599.3 
 134       134   979     583.2 
 135       135   979     575.4 
 136       136   980     609.9 
 137       137   979     602.3 
 138       138   979     575.4 
 139       139   979     605.0 
 140       140   980     567.0 
 141       141   980     614.3 
 142       142   978     586.2 
 143       143   980     609.5 
 144       144   979     573.0 
 145       145   980     618.7 
 146       146   978     611.5 
 147       147   979     577.8 
 148       148   979     552.9 
 149       149   979     582.9 
 150       150   979     582.9 
 151       210  1000     576.3 
 152       270   997     585.8 
 153       330  1000     593.3 
 154       390   996     635.2 
 155       450   996     549.9 
 156       510   996     633.5 
 157       570   994     523.8 
 158       630   998     628.9 
 159       810   983     551.4 
 160       990   980     535.4 
 161      1170   985     670.1 
 162      1350   986     572.7 
 163      1530   981     508.3 
 164      2070   980     497.3 
 165      2691   973     666.7 
 166      3405   978     518.4 
 167      4226   978     573.6 
 168      5170   976     522.9 
 169      6256   975     564.4 
 170      7505   974     500.0 
 171      8941   977     518.9 
 172     10592   975     474.2 
 173     12491   973     362.5 
 174     14675   979     528.8 
 175     17187   975     523.1 
 176     20076   974     458.2 
 177     23398   977     421.0 
 178     27218   979     487.2 
 179     31611   980     428.9 
 180     36663   980     381.6 
 181     42473   977     354.1 
 182     49155   978     319.7 
 183     56839   980     409.2 
 184     65676   977     417.9 
 185     75839   981     417.9 
