PC/104 FIRe Fluorometer 2.0.0
 4/ 8/2025     37015
LED Color:           blue
Gain:               1800
Sample Delay (msec):    10
Number Samples:   3
STF (usec):      150
STRP (#samples):       35
STRI (usec):       60
MTF (ms):        0
MTF (#samples):     0
MTRP (#samples):        0
MTRI (usec):      100
PQLen:     4
Ambient Light Source Power: Off
PAR (uMol/m^2/s):630.00
Comment:
Depth(m):  -0.4
Temperature(C):  72.4
Battery(V):  14.39

         Time    EX   Fl-Yield 
DATA--------------------------
   0         0     0       0.0 
   1         1   156     474.4 
   2         2   817     270.5 
   3         3   953     281.2 
   4         4   969     294.5 
   5         5   972     308.3 
   6         6   973     331.3 
   7         7   973     306.3 
   8         8   977     277.4 
   9         9   974     355.2 
  10        10   975     344.6 
  11        11   976     368.5 
  12        12   977     343.2 
  13        13   977     335.7 
  14        14   977     345.3 
  15        15   977     347.3 
  16        16   978     345.6 
  17        17   980     351.7 
  18        18   977     390.7 
  19        19   978     359.9 
  20        20   979     357.8 
  21        21   980     337.4 
  22        22   979     349.7 
  23        23   979     383.0 
  24        24   979     389.5 
  25        25   980     350.3 
  26        26   980     364.3 
  27        27   978     378.7 
  28        28   980     377.9 
  29        29   980     355.1 
  30        30   980     379.3 
  31        31   980     360.2 
  32        32   980     392.9 
  33        33   980     398.0 
  34        34   981     379.9 
  35        35   981     371.7 
  36        36   980     404.8 
  37        37   981     413.2 
  38        38   980     401.0 
  39        39   981     391.4 
  40        40   980     388.4 
  41        41   981     391.4 
  42        42   980     428.2 
  43        43   982     370.0 
  44        44   981     404.7 
  45        45   980     428.9 
  46        46   981     394.5 
  47        47   982     451.5 
  48        48   982     376.1 
  49        49   981     410.8 
  50        50   981     413.5 
  51        51   980     410.9 
  52        52   983     406.2 
  53        53   981     399.6 
  54        54   981     415.2 
  55        55   981     407.7 
  56        56   982     385.6 
  57        57   982     389.3 
  58        58   981     424.7 
  59        59   981     418.3 
  60        60   980     416.0 
  61        61   983     410.6 
  62        62   981     393.8 
  63        63   981     410.5 
  64        64   981     392.5 
  65        65   982     374.7 
  66        66   982     403.3 
  67        67   981     409.1 
  68        68   981     389.1 
  69        69   981     393.1 
  70        70   983     379.1 
  71        71   980     401.7 
  72        72   981     359.5 
  73        73   981     376.1 
  74        74   982     395.8 
  75        75   981     390.1 
  76        76   980     384.0 
  77        77   980     389.5 
  78        78   982     360.1 
  79        79   982     377.1 
  80        80   980     389.5 
  81        81   981     387.4 
  82        82   980     353.7 
  83        83   982     389.0 
  84        84   980     388.1 
  85        85   980     386.1 
  86        86   980     390.1 
  87        87   982     382.9 
  88        88   981     383.3 
  89        89   980     378.6 
  90        90   981     366.0 
  91        91   981     385.0 
  92        92   982     395.8 
  93        93   980     392.9 
  94        94   980     395.6 
  95        95   980     378.2 
  96        96   982     368.3 
  97        97   981     414.2 
  98        98   980     399.0 
  99        99   980     412.6 
 100       100   980     380.6 
 101       101   981     390.8 
 102       102   980     353.4 
 103       103   980     389.8 
 104       104   980     399.3 
 105       105   982     395.1 
 106       106   980     378.9 
 107       107   980     393.2 
 108       108   980     382.7 
 109       109   981     370.0 
 110       110   980     401.7 
 111       111   980     385.4 
 112       112   980     388.4 
 113       113   980     346.9 
 114       114   981     409.4 
 115       115   980     365.3 
 116       116   980     399.0 
 117       117   980     391.2 
 118       118   980     365.0 
 119       119   980     370.7 
 120       120   979     367.7 
 121       121   980     413.6 
 122       122   980     418.4 
 123       123   981     393.5 
 124       124   979     398.7 
 125       125   980     400.0 
 126       126   980     421.1 
 127       127   981     404.0 
 128       128   980     410.9 
 129       129   979     431.4 
 130       130   979     413.7 
 131       131   980     417.0 
 132       132   980     435.7 
 133       133   979     432.1 
 134       134   979     413.3 
 135       135   979     414.0 
 136       136   980     405.4 
 137       137   979     432.4 
 138       138   979     417.4 
 139       139   979     434.5 
 140       140   980     431.0 
 141       141   980     389.8 
 142       142   978     425.4 
 143       143   980     397.6 
 144       144   979     404.8 
 145       145   980     428.2 
 146       146   978     423.0 
 147       147   979     432.1 
 148       148   979     409.9 
 149       149   979     379.6 
 150       150   979     379.6 
 151       210  1000     371.7 
 152       270   997     389.8 
 153       330  1000     367.3 
 154       390   996     424.4 
 155       450   996     334.7 
 156       510   996     416.0 
 157       570   994     337.0 
 158       630   998     464.3 
 159       810   983     409.6 
 160       990   980     368.7 
 161      1170   985     296.4 
 162      1350   986     286.0 
 163      1530   981     316.0 
 164      2070   980     382.3 
 165      2691   973     299.8 
 166      3405   978     339.8 
 167      4226   978     328.2 
 168      5170   976     308.4 
 169      6256   975     286.2 
 170      7505   974     307.3 
 171      8941   977     313.5 
 172     10592   975     310.1 
 173     12491   973     343.3 
 174     14675   979     297.9 
 175     17187   975     356.6 
 176     20076   974     343.6 
 177     23398   977     322.4 
 178     27218   979     311.5 
 179     31611   980     342.9 
 180     36663   980     266.0 
 181     42473   977     307.4 
 182     49155   978     312.9 
 183     56839   980     375.9 
 184     65676   977     357.6 
 185     75839   981     357.6 
   1         1   156     356.8 
   2         2   817     352.1 
   3         3   953     356.8 
   4         4   969     337.8 
   5         5   972     354.3 
   6         6   973     374.1 
   7         7   973     374.4 
   8         8   977     357.9 
   9         9   974     357.3 
  10        10   975     403.8 
  11        11   976     371.2 
  12        12   977     370.9 
  13        13   977     398.5 
  14        14   977     425.5 
  15        15   977     443.9 
  16        16   978     388.2 
  17        17   980     369.4 
  18        18   977     410.4 
  19        19   978     414.8 
  20        20   979     379.3 
  21        21   980     357.8 
  22        22   979     379.3 
  23        23   979     405.9 
  24        24   979     358.5 
  25        25   980     341.2 
  26        26   980     349.3 
  27        27   978     342.5 
  28        28   980     351.0 
  29        29   980     349.0 
  30        30   980     347.6 
  31        31   980     371.8 
  32        32   980     389.5 
  33        33   980     348.0 
  34        34   981     338.4 
  35        35   981     343.5 
  36        36   980     372.4 
  37        37   981     361.2 
  38        38   980     333.0 
  39        39   981     327.9 
  40        40   980     380.6 
  41        41   981     367.3 
  42        42   980     353.7 
  43        43   982     347.6 
  44        44   981     367.3 
  45        45   980     370.7 
  46        46   981     371.0 
  47        47   982     322.8 
  48        48   982     340.5 
  49        49   981     371.4 
  50        50   981     371.7 
  51        51   980     354.4 
  52        52   983     323.5 
  53        53   981     352.4 
  54        54   981     378.2 
  55        55   981     354.1 
  56        56   982     346.6 
  57        57   982     320.1 
  58        58   981     378.5 
  59        59   981     364.3 
  60        60   980     300.3 
  61        61   983     364.9 
  62        62   981     361.5 
  63        63   981     372.7 
  64        64   981     321.1 
  65        65   982     322.1 
  66        66   982     346.6 
  67        67   981     373.4 
  68        68   981     355.1 
  69        69   981     311.6 
  70        70   983     333.3 
  71        71   980     376.2 
  72        72   981     368.7 
  73        73   981     317.7 
  74        74   982     362.2 
  75        75   981     360.2 
  76        76   980     353.4 
  77        77   980     366.3 
  78        78   982     363.9 
  79        79   982     363.9 
  80        80   980     394.9 
  81        81   981     376.5 
  82        82   980     346.9 
  83        83   982     345.9 
  84        84   980     396.9 
  85        85   980     369.0 
  86        86   980     345.6 
  87        87   982     364.6 
  88        88   981     365.3 
  89        89   980     368.7 
  90        90   981     348.6 
  91        91   981     344.9 
  92        92   982     387.0 
  93        93   980     362.6 
  94        94   980     379.9 
  95        95   980     356.1 
  96        96   982     358.5 
  97        97   981     368.7 
  98        98   980     391.8 
  99        99   980     367.0 
 100       100   980     389.8 
 101       101   981     377.8 
 102       102   980     405.1 
 103       103   980     354.1 
 104       104   980     383.0 
 105       105   982     388.7 
 106       106   980     425.5 
 107       107   980     379.6 
 108       108   980     384.7 
 109       109   981     395.9 
 110       110   980     415.6 
 111       111   980     422.8 
 112       112   980     391.5 
 113       113   980     365.3 
 114       114   981     397.2 
 115       115   980     448.0 
 116       116   980     394.2 
 117       117   980     395.2 
 118       118   980     404.4 
 119       119   980     396.3 
 120       120   979     389.5 
 121       121   980     373.1 
 122       122   980     374.1 
 123       123   981     389.4 
 124       124   979     414.7 
 125       125   980     391.8 
 126       126   980     390.1 
 127       127   981     386.3 
 128       128   980     404.1 
 129       129   979     404.8 
 130       130   979     371.5 
 131       131   980     379.6 
 132       132   980     398.3 
 133       133   979     367.0 
 134       134   979     373.9 
 135       135   979     367.4 
 136       136   980     391.8 
 137       137   979     400.1 
 138       138   979     379.6 
 139       139   979     349.0 
 140       140   980     368.0 
 141       141   980     394.6 
 142       142   978     403.5 
 143       143   980     358.2 
 144       144   979     393.6 
 145       145   980     380.6 
 146       146   978     400.1 
 147       147   979     367.4 
 148       148   979     366.7 
 149       149   979     356.1 
 150       150   979     356.1 
 151       210  1000     378.0 
 152       270   997     392.5 
 153       330  1000     414.7 
 154       390   996     357.1 
 155       450   996     426.0 
 156       510   996     319.3 
 157       570   994     362.5 
 158       630   998     418.8 
 159       810   983     377.8 
 160       990   980     418.7 
 161      1170   985     343.1 
 162      1350   986     394.2 
 163      1530   981     322.8 
 164      2070   980     404.4 
 165      2691   973     413.8 
 166      3405   978     441.4 
 167      4226   978     298.2 
 168      5170   976     449.8 
 169      6256   975     350.8 
 170      7505   974     302.2 
 171      8941   977     365.4 
 172     10592   975     402.4 
 173     12491   973     334.4 
 174     14675   979     317.0 
 175     17187   975     369.6 
 176     20076   974     302.9 
 177     23398   977     320.7 
 178     27218   979     269.7 
 179     31611   980     353.7 
 180     36663   980     279.6 
 181     42473   977     356.9 
 182     49155   978     404.2 
 183     56839   980     375.2 
 184     65676   977     316.6 
 185     75839   981     316.6 
