PC/104 FIRe Fluorometer 2.0.0
 4/ 8/2025     27546
LED Color:           blue
Gain:               2000
Sample Delay (msec):    10
Number Samples:   3
STF (usec):      150
STRP (#samples):       35
STRI (usec):       60
MTF (ms):        0
MTF (#samples):     0
MTRP (#samples):        0
MTRI (usec):      100
PQLen:     4
Ambient Light Source Power: Off
PAR (uMol/m^2/s): 58.82
Comment:
Depth(m):   3.4
Temperature(C):  44.3
Battery(V):  16.28

         Time    EX   Fl-Yield 
DATA--------------------------
   0         0     0       0.0 
   1         1   156      55.6 
   2         2   817     194.2 
   3         3   953      99.0 
   4         4   969     112.1 
   5         5   972      96.4 
   6         6   973     153.5 
   7         7   973      69.5 
   8         8   977      75.1 
   9         9   974     129.7 
  10        10   975     161.4 
  11        11   976     131.5 
  12        12   977      79.5 
  13        13   977      82.2 
  14        14   977     103.4 
  15        15   977     131.0 
  16        16   978      90.3 
  17        17   980      66.3 
  18        18   977     102.0 
  19        19   978     119.0 
  20        20   979      94.3 
  21        21   980      74.8 
  22        22   979      59.9 
  23        23   979     141.6 
  24        24   979      86.1 
  25        25   980      78.2 
  26        26   980      18.7 
  27        27   978     136.3 
  28        28   980     135.4 
  29        29   980      73.8 
  30        30   980      10.5 
  31        31   980     134.4 
  32        32   980     142.5 
  33        33   980      89.1 
  34        34   981      93.4 
  35        35   981     145.1 
  36        36   980     156.5 
  37        37   981     125.4 
  38        38   980      67.7 
  39        39   981      66.9 
  40        40   980     154.8 
  41        41   981     122.3 
  42        42   980      42.5 
  43        43   982      45.8 
  44        44   981     157.0 
  45        45   980     134.7 
  46        46   981     115.2 
  47        47   982      50.9 
  48        48   982      92.7 
  49        49   981     140.0 
  50        50   981      75.1 
  51        51   980     109.9 
  52        52   983     116.6 
  53        53   981     139.0 
  54        54   981     124.4 
  55        55   981     102.3 
  56        56   982     106.9 
  57        57   982     182.6 
  58        58   981     213.4 
  59        59   981     110.4 
  60        60   980     121.1 
  61        61   983     178.4 
  62        62   981     209.0 
  63        63   981     142.4 
  64        64   981     151.9 
  65        65   982     113.7 
  66        66   982     193.5 
  67        67   981     146.4 
  68        68   981     141.0 
  69        69   981     146.1 
  70        70   983     201.1 
  71        71   980     204.4 
  72        72   981      92.4 
  73        73   981     147.8 
  74        74   982     152.7 
  75        75   981     184.5 
  76        76   980     112.9 
  77        77   980     127.9 
  78        78   982     118.1 
  79        79   982     173.5 
  80        80   980     205.4 
  81        81   981     140.3 
  82        82   980     105.1 
  83        83   982     167.3 
  84        84   980     218.4 
  85        85   980     154.4 
  86        86   980     157.1 
  87        87   982     165.3 
  88        88   981     215.4 
  89        89   980     171.4 
  90        90   981     115.9 
  91        91   981     194.7 
  92        92   982     193.5 
  93        93   980     153.1 
  94        94   980      61.6 
  95        95   980     111.9 
  96        96   982     211.5 
  97        97   981     255.9 
  98        98   980     135.4 
  99        99   980     157.8 
 100       100   980     192.5 
 101       101   981     225.3 
 102       102   980     159.9 
 103       103   980     120.4 
 104       104   980     150.0 
 105       105   982     236.3 
 106       106   980     163.9 
 107       107   980      84.7 
 108       108   980     192.5 
 109       109   981     186.2 
 110       110   980     185.7 
 111       111   980      89.8 
 112       112   980      83.7 
 113       113   980     192.9 
 114       114   981     209.7 
 115       115   980     212.9 
 116       116   980     134.0 
 117       117   980     173.8 
 118       118   980     165.3 
 119       119   980     186.1 
 120       120   979     131.4 
 121       121   980     165.3 
 122       122   980     165.6 
 123       123   981     150.5 
 124       124   979      78.3 
 125       125   980     141.2 
 126       126   980     122.1 
 127       127   981     186.9 
 128       128   980      60.5 
 129       129   979      83.1 
 130       130   979      89.2 
 131       131   980     185.0 
 132       132   980     128.2 
 133       133   979      75.2 
 134       134   979     117.1 
 135       135   979     157.6 
 136       136   980     115.6 
 137       137   979      62.3 
 138       138   979     139.6 
 139       139   979     154.6 
 140       140   980     163.6 
 141       141   980      69.4 
 142       142   978      94.4 
 143       143   980     175.5 
 144       144   979     154.9 
 145       145   980     114.6 
 146       146   978      57.3 
 147       147   979     124.6 
 148       148   979     171.3 
 149       149   979     128.7 
 150       150   979     128.7 
 151       210  1000     208.7 
 152       270   997      95.6 
 153       330  1000      97.0 
 154       390   996     -28.4 
 155       450   996     179.0 
 156       510   996      78.3 
 157       570   994     219.3 
 158       630   998     192.4 
 159       810   983     266.2 
 160       990   980     -18.0 
 161      1170   985     233.2 
 162      1350   986     130.2 
 163      1530   981      80.9 
 164      2070   980     156.1 
 165      2691   973     106.9 
 166      3405   978     173.1 
 167      4226   978     112.1 
 168      5170   976     271.5 
 169      6256   975     162.7 
 170      7505   974     222.5 
 171      8941   977     132.0 
 172     10592   975      54.0 
 173     12491   973     255.9 
 174     14675   979     104.9 
 175     17187   975     125.1 
 176     20076   974     272.1 
 177     23398   977     172.0 
 178     27218   979     162.4 
 179     31611   980     197.6 
 180     36663   980     154.1 
 181     42473   977     259.6 
 182     49155   978     145.5 
 183     56839   980      81.3 
 184     65676   977     -14.7 
 185     75839   981     -14.7 
   1         1   156     185.9 
   2         2   817     171.8 
   3         3   953     187.8 
   4         4   969     107.7 
   5         5   972     104.6 
   6         6   973     107.6 
   7         7   973     124.0 
   8         8   977     166.8 
   9         9   974     152.0 
  10        10   975      98.8 
  11        11   976     154.0 
  12        12   977     118.0 
  13        13   977     116.0 
  14        14   977      96.9 
  15        15   977     161.4 
  16        16   978     157.5 
  17        17   980     168.0 
  18        18   977     125.9 
  19        19   978     135.7 
  20        20   979     236.0 
  21        21   980     218.4 
  22        22   979     181.8 
  23        23   979     134.2 
  24        24   979     203.3 
  25        25   980     189.5 
  26        26   980     165.3 
  27        27   978     115.2 
  28        28   980     137.4 
  29        29   980     194.9 
  30        30   980     145.9 
  31        31   980      94.6 
  32        32   980     110.5 
  33        33   980     131.0 
  34        34   981     113.5 
  35        35   981      93.8 
  36        36   980     119.0 
  37        37   981     160.4 
  38        38   980     113.9 
  39        39   981     143.1 
  40        40   980      71.1 
  41        41   981     178.7 
  42        42   980     105.4 
  43        43   982      99.5 
  44        44   981     129.1 
  45        45   980     181.6 
  46        46   981     181.8 
  47        47   982     176.2 
  48        48   982     135.4 
  49        49   981     127.8 
  50        50   981     161.1 
  51        51   980     129.9 
  52        52   983     123.1 
  53        53   981     155.3 
  54        54   981     181.1 
  55        55   981     169.6 
  56        56   982     153.4 
  57        57   982     153.1 
  58        58   981     145.4 
  59        59   981     194.0 
  60        60   980     209.9 
  61        61   983     149.2 
  62        62   981     185.9 
  63        63   981     180.1 
  64        64   981     182.5 
  65        65   982     199.3 
  66        66   982     116.8 
  67        67   981     240.2 
  68        68   981     244.6 
  69        69   981     178.7 
  70        70   983     155.3 
  71        71   980     175.9 
  72        72   981     198.4 
  73        73   981     158.0 
  74        74   982     225.1 
  75        75   981     126.7 
  76        76   980     178.2 
  77        77   980     193.2 
  78        78   982     170.1 
  79        79   982     175.2 
  80        80   980     210.2 
  81        81   981     222.2 
  82        82   980     199.7 
  83        83   982     154.1 
  84        84   980     153.1 
  85        85   980     170.1 
  86        86   980     176.5 
  87        87   982     171.4 
  88        88   981     156.0 
  89        89   980     157.5 
  90        90   981     143.7 
  91        91   981     151.9 
  92        92   982     168.0 
  93        93   980     168.7 
  94        94   980     160.9 
  95        95   980     130.6 
  96        96   982     147.3 
  97        97   981     223.6 
  98        98   980     167.0 
  99        99   980     107.8 
 100       100   980      89.5 
 101       101   981     156.6 
 102       102   980     209.9 
 103       103   980     182.7 
 104       104   980     136.1 
 105       105   982     157.8 
 106       106   980     179.9 
 107       107   980     162.6 
 108       108   980     136.1 
 109       109   981     112.8 
 110       110   980     113.6 
 111       111   980     186.4 
 112       112   980     141.8 
 113       113   980     131.0 
 114       114   981     137.6 
 115       115   980     177.6 
 116       116   980     122.8 
 117       117   980     139.1 
 118       118   980     117.0 
 119       119   980     194.9 
 120       120   979     192.0 
 121       121   980     123.8 
 122       122   980     129.9 
 123       123   981     142.4 
 124       124   979     227.4 
 125       125   980     132.7 
 126       126   980     134.4 
 127       127   981     139.7 
 128       128   980     202.0 
 129       129   979     114.1 
 130       130   979     176.4 
 131       131   980     162.6 
 132       132   980     225.9 
 133       133   979     203.6 
 134       134   979     170.6 
 135       135   979      91.6 
 136       136   980     162.9 
 137       137   979     191.7 
 138       138   979     179.8 
 139       139   979      92.3 
 140       140   980     178.9 
 141       141   980     133.0 
 142       142   978     133.3 
 143       143   980     132.0 
 144       144   979     145.0 
 145       145   980     131.3 
 146       146   978     166.3 
 147       147   979     115.8 
 148       148   979     121.9 
 149       149   979     125.3 
 150       150   979     125.3 
 151       210  1000     197.0 
 152       270   997     160.8 
 153       330  1000      57.0 
 154       390   996     134.2 
 155       450   996     153.6 
 156       510   996     115.1 
 157       570   994      94.6 
 158       630   998      66.1 
 159       810   983     244.5 
 160       990   980     161.9 
 161      1170   985     135.0 
 162      1350   986     119.3 
 163      1530   981     146.1 
 164      2070   980     161.9 
 165      2691   973     -89.1 
 166      3405   978     251.2 
 167      4226   978     190.2 
 168      5170   976      61.1 
 169      6256   975     142.9 
 170      7505   974     161.9 
 171      8941   977     125.6 
 172     10592   975      40.3 
 173     12491   973     280.6 
 174     14675   979     179.4 
 175     17187   975      41.4 
 176     20076   974      26.0 
 177     23398   977     198.2 
 178     27218   979     -31.0 
 179     31611   980     273.1 
 180     36663   980      78.6 
 181     42473   977     162.7 
 182     49155   978     137.4 
 183     56839   980     139.1 
 184     65676   977      39.6 
 185     75839   981      39.6 
