PC/104 FIRe Fluorometer 2.0.0
 5/14/2025     39214
LED Color:           blue
Gain:               1700
Sample Delay (msec):    10
Number Samples:   3
STF (usec):      150
STRP (#samples):       35
STRI (usec):       60
MTF (ms):        0
MTF (#samples):     0
MTRP (#samples):        0
MTRI (usec):      100
PQLen:     4
Ambient Light Source Power: Off
PAR (uMol/m^2/s):436.57
Comment:
Depth(m):   2.3
Temperature(C):  35.7
Battery(V):  16.47

         Time    EX   Fl-Yield 
DATA--------------------------
   0         0     0       0.0 
   1         1   156     380.3 
   2         2   817     222.0 
   3         3   953     207.8 
   4         4   969     225.7 
   5         5   972     244.5 
   6         6   973     256.3 
   7         7   973     213.4 
   8         8   977     241.9 
   9         9   974     281.3 
  10        10   975     294.7 
  11        11   976     243.9 
  12        12   977     271.2 
  13        13   977     286.6 
  14        14   977     323.1 
  15        15   977     305.7 
  16        16   978     230.7 
  17        17   980     294.9 
  18        18   977     302.3 
  19        19   978     319.0 
  20        20   979     253.7 
  21        21   980     294.6 
  22        22   979     325.2 
  23        23   979     343.9 
  24        24   979     288.7 
  25        25   980     295.9 
  26        26   980     328.2 
  27        27   978     318.7 
  28        28   980     253.1 
  29        29   980     307.1 
  30        30   980     315.0 
  31        31   980     362.2 
  32        32   980     303.4 
  33        33   980     318.7 
  34        34   981     306.8 
  35        35   981     346.2 
  36        36   980     337.4 
  37        37   981     331.6 
  38        38   980     344.2 
  39        39   981     373.1 
  40        40   980     311.2 
  41        41   981     338.1 
  42        42   980     311.9 
  43        43   982     335.4 
  44        44   981     365.6 
  45        45   980     293.9 
  46        46   981     302.4 
  47        47   982     327.6 
  48        48   982     329.9 
  49        49   981     326.5 
  50        50   981     277.6 
  51        51   980     325.9 
  52        52   983     313.7 
  53        53   981     319.1 
  54        54   981     307.5 
  55        55   981     263.3 
  56        56   982     336.7 
  57        57   982     320.4 
  58        58   981     297.0 
  59        59   981     296.3 
  60        60   980     328.6 
  61        61   983     351.6 
  62        62   981     306.2 
  63        63   981     313.3 
  64        64   981     317.7 
  65        65   982     368.0 
  66        66   982     297.0 
  67        67   981     295.3 
  68        68   981     353.4 
  69        69   981     347.6 
  70        70   983     308.6 
  71        71   980     305.1 
  72        72   981     332.7 
  73        73   981     344.9 
  74        74   982     350.3 
  75        75   981     306.2 
  76        76   980     282.7 
  77        77   980     315.3 
  78        78   982     328.6 
  79        79   982     317.7 
  80        80   980     285.4 
  81        81   981     319.7 
  82        82   980     360.5 
  83        83   982     322.8 
  84        84   980     303.4 
  85        85   980     320.7 
  86        86   980     367.3 
  87        87   982     310.9 
  88        88   981     322.1 
  89        89   980     321.1 
  90        90   981     359.8 
  91        91   981     345.6 
  92        92   982     343.5 
  93        93   980     305.4 
  94        94   980     338.4 
  95        95   980     339.1 
  96        96   982     272.6 
  97        97   981     300.7 
  98        98   980     328.2 
  99        99   980     379.9 
 100       100   980     318.7 
 101       101   981     291.5 
 102       102   980     302.0 
 103       103   980     334.7 
 104       104   980     321.1 
 105       105   982     320.4 
 106       106   980     302.7 
 107       107   980     348.6 
 108       108   980     359.5 
 109       109   981     288.5 
 110       110   980     296.6 
 111       111   980     344.9 
 112       112   980     334.0 
 113       113   980     327.2 
 114       114   981     296.6 
 115       115   980     350.0 
 116       116   980     349.7 
 117       117   980     327.2 
 118       118   980     331.6 
 119       119   980     322.8 
 120       120   979     369.4 
 121       121   980     308.5 
 122       122   980     291.8 
 123       123   981     329.3 
 124       124   979     361.3 
 125       125   980     328.9 
 126       126   980     304.8 
 127       127   981     324.2 
 128       128   980     364.3 
 129       129   979     334.4 
 130       130   979     294.5 
 131       131   980     303.4 
 132       132   980     308.2 
 133       133   979     342.2 
 134       134   979     298.3 
 135       135   979     310.9 
 136       136   980     299.7 
 137       137   979     350.7 
 138       138   979     336.1 
 139       139   979     320.7 
 140       140   980     312.9 
 141       141   980     385.7 
 142       142   978     350.4 
 143       143   980     333.0 
 144       144   979     343.9 
 145       145   980     360.2 
 146       146   978     386.2 
 147       147   979     335.7 
 148       148   979     336.4 
 149       149   979     350.4 
 150       150   979     350.4 
 151       210  1000     292.3 
 152       270   997     328.0 
 153       330  1000     357.0 
 154       390   996     394.9 
 155       450   996     318.6 
 156       510   996     302.9 
 157       570   994     218.3 
 158       630   998     257.2 
 159       810   983     289.3 
 160       990   980     232.0 
 161      1170   985     297.5 
 162      1350   986     193.7 
 163      1530   981     282.7 
 164      2070   980     272.8 
 165      2691   973     250.8 
 166      3405   978     292.8 
 167      4226   978     260.4 
 168      5170   976     277.7 
 169      6256   975     181.2 
 170      7505   974     271.7 
 171      8941   977     186.6 
 172     10592   975     291.6 
 173     12491   973     198.7 
 174     14675   979     195.8 
 175     17187   975     301.5 
 176     20076   974     270.4 
 177     23398   977     207.1 
 178     27218   979     301.7 
 179     31611   980     258.8 
 180     36663   980     249.0 
 181     42473   977     251.8 
 182     49155   978     266.2 
 183     56839   980     202.7 
 184     65676   977     196.9 
 185     75839   981     196.9 
   1         1   156     -74.8 
   2         2   817     251.7 
   3         3   953     309.9 
   4         4   969     280.4 
   5         5   972     257.2 
   6         6   973     258.3 
   7         7   973     295.0 
   8         8   977     280.8 
   9         9   974     261.8 
  10        10   975     290.9 
  11        11   976     348.4 
  12        12   977     378.0 
  13        13   977     355.9 
  14        14   977     358.2 
  15        15   977     377.7 
  16        16   978     361.3 
  17        17   980     354.1 
  18        18   977     380.1 
  19        19   978     346.3 
  20        20   979     401.8 
  21        21   980     313.3 
  22        22   979     300.3 
  23        23   979     329.6 
  24        24   979     355.5 
  25        25   980     362.9 
  26        26   980     318.0 
  27        27   978     298.9 
  28        28   980     337.1 
  29        29   980     359.2 
  30        30   980     305.4 
  31        31   980     295.9 
  32        32   980     332.7 
  33        33   980     337.8 
  34        34   981     314.0 
  35        35   981     313.3 
  36        36   980     331.0 
  37        37   981     336.1 
  38        38   980     311.9 
  39        39   981     305.1 
  40        40   980     306.5 
  41        41   981     338.1 
  42        42   980     354.4 
  43        43   982     346.2 
  44        44   981     327.2 
  45        45   980     349.3 
  46        46   981     310.6 
  47        47   982     338.4 
  48        48   982     313.6 
  49        49   981     343.5 
  50        50   981     366.3 
  51        51   980     327.9 
  52        52   983     317.7 
  53        53   981     337.8 
  54        54   981     362.2 
  55        55   981     340.8 
  56        56   982     301.8 
  57        57   982     328.9 
  58        58   981     360.2 
  59        59   981     375.5 
  60        60   980     345.2 
  61        61   983     334.4 
  62        62   981     357.1 
  63        63   981     368.7 
  64        64   981     349.0 
  65        65   982     349.6 
  66        66   982     342.5 
  67        67   981     377.8 
  68        68   981     340.8 
  69        69   981     323.1 
  70        70   983     345.9 
  71        71   980     372.8 
  72        72   981     346.2 
  73        73   981     325.9 
  74        74   982     328.2 
  75        75   981     333.3 
  76        76   980     380.3 
  77        77   980     322.4 
  78        78   982     313.6 
  79        79   982     345.9 
  80        80   980     339.8 
  81        81   981     317.4 
  82        82   980     308.2 
  83        83   982     338.1 
  84        84   980     335.0 
  85        85   980     331.6 
  86        86   980     307.8 
  87        87   982     316.4 
  88        88   981     331.0 
  89        89   980     337.1 
  90        90   981     286.8 
  91        91   981     304.5 
  92        92   982     356.1 
  93        93   980     335.7 
  94        94   980     302.4 
  95        95   980     309.2 
  96        96   982     321.5 
  97        97   981     330.3 
  98        98   980     296.3 
  99        99   980     282.7 
 100       100   980     314.3 
 101       101   981     366.0 
 102       102   980     288.4 
 103       103   980     276.9 
 104       104   980     292.9 
 105       105   982     334.0 
 106       106   980     317.0 
 107       107   980     288.1 
 108       108   980     307.5 
 109       109   981     351.3 
 110       110   980     324.8 
 111       111   980     311.6 
 112       112   980     299.3 
 113       113   980     326.2 
 114       114   981     349.6 
 115       115   980     319.4 
 116       116   980     316.3 
 117       117   980     344.6 
 118       118   980     354.1 
 119       119   980     321.1 
 120       120   979     317.0 
 121       121   980     314.6 
 122       122   980     342.9 
 123       123   981     310.9 
 124       124   979     293.8 
 125       125   980     320.1 
 126       126   980     346.6 
 127       127   981     331.3 
 128       128   980     313.9 
 129       129   979     303.0 
 130       130   979     338.8 
 131       131   980     343.5 
 132       132   980     328.6 
 133       133   979     306.1 
 134       134   979     347.6 
 135       135   979     354.1 
 136       136   980     345.6 
 137       137   979     340.8 
 138       138   979     314.9 
 139       139   979     368.1 
 140       140   980     349.7 
 141       141   980     334.0 
 142       142   978     350.4 
 143       143   980     365.6 
 144       144   979     359.9 
 145       145   980     333.0 
 146       146   978     321.4 
 147       147   979     380.0 
 148       148   979     360.6 
 149       149   979     378.6 
 150       150   979     378.6 
 151       210  1000     280.3 
 152       270   997     308.3 
 153       330  1000     235.7 
 154       390   996     251.7 
 155       450   996     177.7 
 156       510   996     371.8 
 157       570   994     260.9 
 158       630   998     368.7 
 159       810   983     274.0 
 160       990   980     272.8 
 161      1170   985     333.3 
 162      1350   986     220.4 
 163      1530   981     353.0 
 164      2070   980     301.7 
 165      2691   973     223.7 
 166      3405   978     197.7 
 167      4226   978     351.1 
 168      5170   976     212.8 
 169      6256   975     262.9 
 170      7505   974     202.3 
 171      8941   977     247.0 
 172     10592   975     245.1 
 173     12491   973     277.8 
 174     14675   979     282.6 
 175     17187   975     287.5 
 176     20076   974     362.8 
 177     23398   977     300.2 
 178     27218   979     139.6 
 179     31611   980     328.6 
 180     36663   980     300.7 
 181     42473   977     246.7 
 182     49155   978     306.4 
 183     56839   980     234.0 
 184     65676   977     218.7 
 185     75839   981     218.7 
