PC/104 FIRe Fluorometer 2.0.0
 5/14/2025     43189
LED Color:           blue
Gain:               1700
Sample Delay (msec):    10
Number Samples:   3
STF (usec):      150
STRP (#samples):       35
STRI (usec):       60
MTF (ms):        0
MTF (#samples):     0
MTRP (#samples):        0
MTRI (usec):      100
PQLen:     4
Ambient Light Source Power: Off
PAR (uMol/m^2/s):290.44
Comment:
Depth(m):   2.8
Temperature(C):  36.3
Battery(V):  16.41

         Time    EX   Fl-Yield 
DATA--------------------------
   0         0     0       0.0 
   1         1   156     175.2 
   2         2   817     245.6 
   3         3   953     298.4 
   4         4   969     261.4 
   5         5   972     291.5 
   6         6   973     268.6 
   7         7   973     305.6 
   8         8   977     299.6 
   9         9   974     294.0 
  10        10   975     319.0 
  11        11   976     327.2 
  12        12   977     311.8 
  13        13   977     310.1 
  14        14   977     322.1 
  15        15   977     364.4 
  16        16   978     360.9 
  17        17   980     355.4 
  18        18   977     335.4 
  19        19   978     374.2 
  20        20   979     351.7 
  21        21   980     348.3 
  22        22   979     312.9 
  23        23   979     367.0 
  24        24   979     374.5 
  25        25   980     384.7 
  26        26   980     375.5 
  27        27   978     378.7 
  28        28   980     416.7 
  29        29   980     396.6 
  30        30   980     398.0 
  31        31   980     355.1 
  32        32   980     434.0 
  33        33   980     423.8 
  34        34   981     424.4 
  35        35   981     409.8 
  36        36   980     395.6 
  37        37   981     440.7 
  38        38   980     409.2 
  39        39   981     424.1 
  40        40   980     447.6 
  41        41   981     460.4 
  42        42   980     430.3 
  43        43   982     391.7 
  44        44   981     442.4 
  45        45   980     453.7 
  46        46   981     432.6 
  47        47   982     413.4 
  48        48   982     403.6 
  49        49   981     447.8 
  50        50   981     447.2 
  51        51   980     422.4 
  52        52   983     415.7 
  53        53   981     441.0 
  54        54   981     454.0 
  55        55   981     421.3 
  56        56   982     435.2 
  57        57   982     444.3 
  58        58   981     447.5 
  59        59   981     430.5 
  60        60   980     434.7 
  61        61   983     420.5 
  62        62   981     492.4 
  63        63   981     452.3 
  64        64   981     425.4 
  65        65   982     449.1 
  66        66   982     482.3 
  67        67   981     456.0 
  68        68   981     435.3 
  69        69   981     438.7 
  70        70   983     480.8 
  71        71   980     499.3 
  72        72   981     411.8 
  73        73   981     439.3 
  74        74   982     481.7 
  75        75   981     463.8 
  76        76   980     439.1 
  77        77   980     412.6 
  78        78   982     434.1 
  79        79   982     469.5 
  80        80   980     459.9 
  81        81   981     432.2 
  82        82   980     457.5 
  83        83   982     478.3 
  84        84   980     465.6 
  85        85   980     437.8 
  86        86   980     436.1 
  87        87   982     432.1 
  88        88   981     472.3 
  89        89   980     440.8 
  90        90   981     442.7 
  91        91   981     463.8 
  92        92   982     485.1 
  93        93   980     460.2 
  94        94   980     449.7 
  95        95   980     455.1 
  96        96   982     486.1 
  97        97   981     430.5 
  98        98   980     438.4 
  99        99   980     461.9 
 100       100   980     482.3 
 101       101   981     455.7 
 102       102   980     468.0 
 103       103   980     421.8 
 104       104   980     462.2 
 105       105   982     472.5 
 106       106   980     447.6 
 107       107   980     458.2 
 108       108   980     465.0 
 109       109   981     463.5 
 110       110   980     469.4 
 111       111   980     426.9 
 112       112   980     473.5 
 113       113   980     491.2 
 114       114   981     439.7 
 115       115   980     409.2 
 116       116   980     444.6 
 117       117   980     484.4 
 118       118   980     452.0 
 119       119   980     443.2 
 120       120   979     451.1 
 121       121   980     473.5 
 122       122   980     453.1 
 123       123   981     465.2 
 124       124   979     443.0 
 125       125   980     486.7 
 126       126   980     476.9 
 127       127   981     439.0 
 128       128   980     441.8 
 129       129   979     477.4 
 130       130   979     473.6 
 131       131   980     440.8 
 132       132   980     442.2 
 133       133   979     421.2 
 134       134   979     500.9 
 135       135   979     459.0 
 136       136   980     442.9 
 137       137   979     467.5 
 138       138   979     483.5 
 139       139   979     499.5 
 140       140   980     426.2 
 141       141   980     465.0 
 142       142   978     491.1 
 143       143   980     470.7 
 144       144   979     483.8 
 145       145   980     437.1 
 146       146   978     466.9 
 147       147   979     496.8 
 148       148   979     480.1 
 149       149   979     482.1 
 150       150   979     482.1 
 151       210  1000     364.3 
 152       270   997     389.8 
 153       330  1000     361.7 
 154       390   996     433.1 
 155       450   996     427.0 
 156       510   996     440.8 
 157       570   994     397.0 
 158       630   998     355.0 
 159       810   983     369.6 
 160       990   980     315.0 
 161      1170   985     354.3 
 162      1350   986     307.3 
 163      1530   981     344.5 
 164      2070   980     324.5 
 165      2691   973     323.4 
 166      3405   978     288.0 
 167      4226   978     372.2 
 168      5170   976     265.7 
 169      6256   975     334.7 
 170      7505   974     266.3 
 171      8941   977     251.5 
 172     10592   975     252.6 
 173     12491   973     260.0 
 174     14675   979     240.4 
 175     17187   975     299.8 
 176     20076   974     296.7 
 177     23398   977     269.9 
 178     27218   979     233.6 
 179     31611   980     342.2 
 180     36663   980     278.9 
 181     42473   977     316.6 
 182     49155   978     207.6 
 183     56839   980     295.9 
 184     65676   977     295.1 
 185     75839   981     295.1 
   1         1   156     237.2 
   2         2   817     435.7 
   3         3   953     459.6 
   4         4   969     436.5 
   5         5   972     447.9 
   6         6   973     452.6 
   7         7   973     447.1 
   8         8   977     441.5 
   9         9   974     426.1 
  10        10   975     483.4 
  11        11   976     504.8 
  12        12   977     501.9 
  13        13   977     508.7 
  14        14   977     479.7 
  15        15   977     539.4 
  16        16   978     513.3 
  17        17   980     493.2 
  18        18   977     517.6 
  19        19   978     518.7 
  20        20   979     525.7 
  21        21   980     487.1 
  22        22   979     458.3 
  23        23   979     491.7 
  24        24   979     493.4 
  25        25   980     434.4 
  26        26   980     457.1 
  27        27   978     443.8 
  28        28   980     456.8 
  29        29   980     459.9 
  30        30   980     445.2 
  31        31   980     450.0 
  32        32   980     466.0 
  33        33   980     469.4 
  34        34   981     445.5 
  35        35   981     454.3 
  36        36   980     507.5 
  37        37   981     457.0 
  38        38   980     439.8 
  39        39   981     449.5 
  40        40   980     497.6 
  41        41   981     475.4 
  42        42   980     459.2 
  43        43   982     463.0 
  44        44   981     468.9 
  45        45   980     516.3 
  46        46   981     499.5 
  47        47   982     481.0 
  48        48   982     514.3 
  49        49   981     486.6 
  50        50   981     474.3 
  51        51   980     491.8 
  52        52   983     460.5 
  53        53   981     494.1 
  54        54   981     495.1 
  55        55   981     488.3 
  56        56   982     506.4 
  57        57   982     518.0 
  58        58   981     507.0 
  59        59   981     465.2 
  60        60   980     489.5 
  61        61   983     499.2 
  62        62   981     516.5 
  63        63   981     487.6 
  64        64   981     508.7 
  65        65   982     481.7 
  66        66   982     516.6 
  67        67   981     510.0 
  68        68   981     469.2 
  69        69   981     492.7 
  70        70   983     523.2 
  71        71   980     515.3 
  72        72   981     488.3 
  73        73   981     488.6 
  74        74   982     501.0 
  75        75   981     506.3 
  76        76   980     498.3 
  77        77   980     488.8 
  78        78   982     526.5 
  79        79   982     493.9 
  80        80   980     504.1 
  81        81   981     481.1 
  82        82   980     496.3 
  83        83   982     518.7 
  84        84   980     513.3 
  85        85   980     463.9 
  86        86   980     494.6 
  87        87   982     522.1 
  88        88   981     510.7 
  89        89   980     473.1 
  90        90   981     503.9 
  91        91   981     509.0 
  92        92   982     524.4 
  93        93   980     484.4 
  94        94   980     504.4 
  95        95   980     516.0 
  96        96   982     481.7 
  97        97   981     461.8 
  98        98   980     495.9 
  99        99   980     492.5 
 100       100   980     554.4 
 101       101   981     508.7 
 102       102   980     479.9 
 103       103   980     477.9 
 104       104   980     515.3 
 105       105   982     518.0 
 106       106   980     502.7 
 107       107   980     531.6 
 108       108   980     518.0 
 109       109   981     527.0 
 110       110   980     474.8 
 111       111   980     501.7 
 112       112   980     498.0 
 113       113   980     515.3 
 114       114   981     470.3 
 115       115   980     505.8 
 116       116   980     512.9 
 117       117   980     510.2 
 118       118   980     496.6 
 119       119   980     507.1 
 120       120   979     478.7 
 121       121   980     521.1 
 122       122   980     508.8 
 123       123   981     501.9 
 124       124   979     514.8 
 125       125   980     520.7 
 126       126   980     520.7 
 127       127   981     515.8 
 128       128   980     495.2 
 129       129   979     522.0 
 130       130   979     511.1 
 131       131   980     499.3 
 132       132   980     504.1 
 133       133   979     483.5 
 134       134   979     524.7 
 135       135   979     512.1 
 136       136   980     496.3 
 137       137   979     502.6 
 138       138   979     529.8 
 139       139   979     503.9 
 140       140   980     474.5 
 141       141   980     493.9 
 142       142   978     517.4 
 143       143   980     517.0 
 144       144   979     472.3 
 145       145   980     506.8 
 146       146   978     522.2 
 147       147   979     536.6 
 148       148   979     507.0 
 149       149   979     483.1 
 150       150   979     483.1 
 151       210  1000     413.0 
 152       270   997     394.5 
 153       330  1000     469.7 
 154       390   996     509.0 
 155       450   996     512.4 
 156       510   996     518.7 
 157       570   994     477.9 
 158       630   998     441.2 
 159       810   983     464.9 
 160       990   980     434.7 
 161      1170   985     419.0 
 162      1350   986     483.8 
 163      1530   981     420.3 
 164      2070   980     502.7 
 165      2691   973     530.7 
 166      3405   978     421.3 
 167      4226   978     496.3 
 168      5170   976     389.7 
 169      6256   975     423.9 
 170      7505   974     468.9 
 171      8941   977     416.2 
 172     10592   975     433.5 
 173     12491   973     438.2 
 174     14675   979     453.9 
 175     17187   975     380.5 
 176     20076   974     404.5 
 177     23398   977     341.5 
 178     27218   979     360.9 
 179     31611   980     411.2 
 180     36663   980     407.1 
 181     42473   977     291.4 
 182     49155   978     368.8 
 183     56839   980     408.8 
 184     65676   977     353.5 
 185     75839   981     353.5 
