PC/104 FIRe Fluorometer 2.0.0
 5/14/2025     43206
LED Color:           blue
Gain:               1800
Sample Delay (msec):    10
Number Samples:   3
STF (usec):      150
STRP (#samples):       35
STRI (usec):       60
MTF (ms):        0
MTF (#samples):     0
MTRP (#samples):        0
MTRI (usec):      100
PQLen:     4
Ambient Light Source Power: Off
PAR (uMol/m^2/s):267.13
Comment:
Depth(m):   2.6
Temperature(C):  36.1
Battery(V):  16.40

         Time    EX   Fl-Yield 
DATA--------------------------
   0         0     0       0.0 
   1         1   156     303.4 
   2         2   817     271.3 
   3         3   953     227.4 
   4         4   969     272.8 
   5         5   972     311.4 
   6         6   973     305.9 
   7         7   973     305.2 
   8         8   977     257.9 
   9         9   974     334.7 
  10        10   975     333.0 
  11        11   976     338.8 
  12        12   977     291.4 
  13        13   977     315.3 
  14        14   977     326.5 
  15        15   977     326.5 
  16        16   978     274.4 
  17        17   980     335.0 
  18        18   977     332.7 
  19        19   978     294.8 
  20        20   979     343.9 
  21        21   980     320.1 
  22        22   979     330.3 
  23        23   979     342.2 
  24        24   979     320.1 
  25        25   980     316.7 
  26        26   980     379.6 
  27        27   978     342.9 
  28        28   980     360.5 
  29        29   980     358.8 
  30        30   980     323.8 
  31        31   980     369.4 
  32        32   980     341.8 
  33        33   980     349.0 
  34        34   981     370.4 
  35        35   981     380.9 
  36        36   980     357.5 
  37        37   981     357.5 
  38        38   980     346.6 
  39        39   981     370.7 
  40        40   980     365.3 
  41        41   981     327.6 
  42        42   980     419.0 
  43        43   982     329.9 
  44        44   981     376.8 
  45        45   980     369.4 
  46        46   981     384.3 
  47        47   982     354.7 
  48        48   982     363.9 
  49        49   981     334.7 
  50        50   981     321.1 
  51        51   980     390.8 
  52        52   983     392.7 
  53        53   981     387.4 
  54        54   981     362.2 
  55        55   981     356.1 
  56        56   982     380.2 
  57        57   982     395.1 
  58        58   981     393.8 
  59        59   981     364.6 
  60        60   980     418.0 
  61        61   983     381.1 
  62        62   981     399.6 
  63        63   981     382.3 
  64        64   981     416.6 
  65        65   982     412.1 
  66        66   982     377.5 
  67        67   981     400.6 
  68        68   981     351.3 
  69        69   981     409.8 
  70        70   983     379.5 
  71        71   980     358.5 
  72        72   981     388.7 
  73        73   981     432.9 
  74        74   982     384.9 
  75        75   981     403.3 
  76        76   980     387.8 
  77        77   980     410.2 
  78        78   982     395.5 
  79        79   982     419.6 
  80        80   980     415.0 
  81        81   981     419.0 
  82        82   980     428.6 
  83        83   982     424.6 
  84        84   980     385.7 
  85        85   980     413.3 
  86        86   980     429.9 
  87        87   982     408.7 
  88        88   981     374.4 
  89        89   980     371.1 
  90        90   981     409.8 
  91        91   981     386.7 
  92        92   982     408.7 
  93        93   980     423.8 
  94        94   980     434.0 
  95        95   980     384.4 
  96        96   982     416.5 
  97        97   981     388.4 
  98        98   980     405.1 
  99        99   980     425.5 
 100       100   980     406.1 
 101       101   981     366.6 
 102       102   980     419.7 
 103       103   980     411.6 
 104       104   980     442.5 
 105       105   982     389.7 
 106       106   980     396.6 
 107       107   980     428.9 
 108       108   980     395.6 
 109       109   981     407.1 
 110       110   980     410.9 
 111       111   980     384.7 
 112       112   980     394.9 
 113       113   980     429.3 
 114       114   981     414.2 
 115       115   980     393.5 
 116       116   980     410.5 
 117       117   980     383.3 
 118       118   980     360.9 
 119       119   980     434.0 
 120       120   979     430.7 
 121       121   980     398.0 
 122       122   980     430.3 
 123       123   981     422.7 
 124       124   979     403.8 
 125       125   980     419.4 
 126       126   980     393.2 
 127       127   981     427.1 
 128       128   980     412.2 
 129       129   979     434.8 
 130       130   979     405.5 
 131       131   980     370.7 
 132       132   980     437.4 
 133       133   979     428.7 
 134       134   979     407.6 
 135       135   979     379.6 
 136       136   980     404.1 
 137       137   979     437.2 
 138       138   979     425.3 
 139       139   979     393.9 
 140       140   980     390.5 
 141       141   980     399.7 
 142       142   978     368.4 
 143       143   980     419.4 
 144       144   979     425.6 
 145       145   980     436.7 
 146       146   978     438.7 
 147       147   979     376.2 
 148       148   979     396.3 
 149       149   979     394.6 
 150       150   979     394.6 
 151       210  1000     396.0 
 152       270   997     405.2 
 153       330  1000     428.0 
 154       390   996     391.6 
 155       450   996     412.7 
 156       510   996     327.0 
 157       570   994     343.1 
 158       630   998     427.2 
 159       810   983     367.9 
 160       990   980     321.8 
 161      1170   985     351.3 
 162      1350   986     354.3 
 163      1530   981     379.2 
 164      2070   980     309.2 
 165      2691   973     364.2 
 166      3405   978     275.7 
 167      4226   978     233.5 
 168      5170   976     326.5 
 169      6256   975     313.8 
 170      7505   974     310.7 
 171      8941   977     310.1 
 172     10592   975     325.1 
 173     12491   973     344.0 
 174     14675   979     337.4 
 175     17187   975     404.8 
 176     20076   974     251.9 
 177     23398   977     268.2 
 178     27218   979     392.9 
 179     31611   980     289.8 
 180     36663   980     389.1 
 181     42473   977     375.6 
 182     49155   978     314.2 
 183     56839   980     341.8 
 184     65676   977     262.0 
 185     75839   981     262.0 
   1         1   156     523.5 
   2         2   817     402.3 
   3         3   953     382.0 
   4         4   969     420.4 
   5         5   972     410.2 
   6         6   973     404.9 
   7         7   973     388.5 
   8         8   977     406.3 
   9         9   974     471.3 
  10        10   975     443.1 
  11        11   976     421.4 
  12        12   977     449.0 
  13        13   977     502.2 
  14        14   977     496.4 
  15        15   977     490.3 
  16        16   978     467.3 
  17        17   980     526.2 
  18        18   977     474.2 
  19        19   978     455.4 
  20        20   979     451.1 
  21        21   980     485.0 
  22        22   979     468.2 
  23        23   979     413.0 
  24        24   979     412.3 
  25        25   980     424.1 
  26        26   980     434.0 
  27        27   978     450.6 
  28        28   980     386.7 
  29        29   980     439.1 
  30        30   980     437.1 
  31        31   980     466.3 
  32        32   980     417.7 
  33        33   980     423.8 
  34        34   981     437.3 
  35        35   981     467.9 
  36        36   980     387.8 
  37        37   981     398.6 
  38        38   980     445.9 
  39        39   981     423.7 
  40        40   980     408.2 
  41        41   981     385.7 
  42        42   980     460.9 
  43        43   982     442.3 
  44        44   981     404.0 
  45        45   980     412.9 
  46        46   981     425.1 
  47        47   982     414.5 
  48        48   982     408.4 
  49        49   981     404.3 
  50        50   981     401.3 
  51        51   980     454.8 
  52        52   983     429.6 
  53        53   981     386.0 
  54        54   981     420.7 
  55        55   981     455.7 
  56        56   982     424.0 
  57        57   982     431.8 
  58        58   981     416.2 
  59        59   981     443.4 
  60        60   980     436.7 
  61        61   983     431.3 
  62        62   981     421.0 
  63        63   981     428.5 
  64        64   981     450.9 
  65        65   982     433.8 
  66        66   982     394.8 
  67        67   981     432.2 
  68        68   981     431.5 
  69        69   981     464.2 
  70        70   983     360.5 
  71        71   980     437.4 
  72        72   981     465.5 
  73        73   981     442.1 
  74        74   982     435.2 
  75        75   981     415.6 
  76        76   980     453.7 
  77        77   980     467.0 
  78        78   982     445.3 
  79        79   982     430.8 
  80        80   980     429.3 
  81        81   981     455.7 
  82        82   980     458.8 
  83        83   982     432.8 
  84        84   980     436.7 
  85        85   980     479.9 
  86        86   980     443.2 
  87        87   982     404.3 
  88        88   981     444.8 
  89        89   980     466.7 
  90        90   981     456.3 
  91        91   981     428.1 
  92        92   982     410.4 
  93        93   980     477.9 
  94        94   980     474.5 
  95        95   980     442.5 
  96        96   982     419.9 
  97        97   981     471.3 
  98        98   980     459.9 
  99        99   980     482.7 
 100       100   980     457.8 
 101       101   981     455.7 
 102       102   980     502.4 
 103       103   980     469.7 
 104       104   980     441.8 
 105       105   982     417.5 
 106       106   980     480.6 
 107       107   980     492.9 
 108       108   980     462.6 
 109       109   981     475.7 
 110       110   980     444.6 
 111       111   980     479.9 
 112       112   980     430.6 
 113       113   980     424.1 
 114       114   981     444.8 
 115       115   980     469.7 
 116       116   980     463.9 
 117       117   980     427.2 
 118       118   980     449.0 
 119       119   980     505.8 
 120       120   979     446.0 
 121       121   980     415.3 
 122       122   980     450.7 
 123       123   981     489.3 
 124       124   979     482.5 
 125       125   980     426.2 
 126       126   980     404.1 
 127       127   981     461.1 
 128       128   980     471.8 
 129       129   979     444.3 
 130       130   979     420.8 
 131       131   980     471.8 
 132       132   980     495.2 
 133       133   979     481.1 
 134       134   979     450.8 
 135       135   979     450.5 
 136       136   980     492.9 
 137       137   979     469.9 
 138       138   979     460.3 
 139       139   979     403.8 
 140       140   980     486.1 
 141       141   980     462.6 
 142       142   978     484.7 
 143       143   980     428.2 
 144       144   979     483.5 
 145       145   980     492.2 
 146       146   978     439.0 
 147       147   979     433.1 
 148       148   979     446.7 
 149       149   979     453.9 
 150       150   979     453.9 
 151       210  1000     439.7 
 152       270   997     413.9 
 153       330  1000     480.3 
 154       390   996     432.1 
 155       450   996     422.0 
 156       510   996     376.8 
 157       570   994     415.5 
 158       630   998     444.6 
 159       810   983     451.7 
 160       990   980     382.0 
 161      1170   985     484.3 
 162      1350   986     362.1 
 163      1530   981     462.1 
 164      2070   980     431.6 
 165      2691   973     369.3 
 166      3405   978     478.2 
 167      4226   978     396.4 
 168      5170   976     449.8 
 169      6256   975     447.2 
 170      7505   974     349.1 
 171      8941   977     481.1 
 172     10592   975     394.2 
 173     12491   973     360.7 
 174     14675   979     315.6 
 175     17187   975     414.0 
 176     20076   974     387.7 
 177     23398   977     366.4 
 178     27218   979     366.4 
 179     31611   980     377.2 
 180     36663   980     428.2 
 181     42473   977     361.3 
 182     49155   978     422.3 
 183     56839   980     328.6 
 184     65676   977     322.8 
 185     75839   981     322.8 
