PC/104 FIRe Fluorometer 2.0.0
 5/14/2025     37320
LED Color:           blue
Gain:               1500
Sample Delay (msec):    10
Number Samples:   3
STF (usec):      150
STRP (#samples):       35
STRI (usec):       60
MTF (ms):        0
MTF (#samples):     0
MTRP (#samples):        0
MTRI (usec):      100
PQLen:     4
Ambient Light Source Power: Off
PAR (uMol/m^2/s):900.00
Comment:
Depth(m):   2.2
Temperature(C):  34.6
Battery(V):  16.47

         Time    EX   Fl-Yield 
DATA--------------------------
   0         0     0       0.0 
   1         1   156       4.3 
   2         2   817     220.3 
   3         3   953     231.9 
   4         4   969     229.1 
   5         5   972     231.1 
   6         6   973     226.8 
   7         7   973     225.1 
   8         8   977     233.4 
   9         9   974     240.6 
  10        10   975     232.1 
  11        11   976     235.7 
  12        12   977     246.3 
  13        13   977     253.5 
  14        14   977     245.3 
  15        15   977     249.1 
  16        16   978     253.9 
  17        17   980     242.5 
  18        18   977     254.5 
  19        19   978     249.5 
  20        20   979     252.0 
  21        21   980     269.7 
  22        22   979     250.9 
  23        23   979     256.0 
  24        24   979     262.5 
  25        25   980     259.5 
  26        26   980     250.7 
  27        27   978     257.7 
  28        28   980     263.9 
  29        29   980     273.1 
  30        30   980     275.5 
  31        31   980     274.8 
  32        32   980     268.0 
  33        33   980     285.4 
  34        34   981     283.4 
  35        35   981     270.8 
  36        36   980     281.6 
  37        37   981     298.7 
  38        38   980     316.7 
  39        39   981     291.5 
  40        40   980     300.0 
  41        41   981     290.9 
  42        42   980     298.0 
  43        43   982     272.9 
  44        44   981     285.1 
  45        45   980     290.5 
  46        46   981     303.8 
  47        47   982     287.5 
  48        48   982     301.8 
  49        49   981     282.0 
  50        50   981     296.0 
  51        51   980     312.6 
  52        52   983     299.4 
  53        53   981     278.6 
  54        54   981     302.8 
  55        55   981     317.0 
  56        56   982     286.5 
  57        57   982     304.5 
  58        58   981     297.7 
  59        59   981     318.0 
  60        60   980     315.0 
  61        61   983     288.9 
  62        62   981     323.8 
  63        63   981     327.9 
  64        64   981     326.5 
  65        65   982     326.9 
  66        66   982     316.7 
  67        67   981     320.8 
  68        68   981     312.9 
  69        69   981     318.0 
  70        70   983     317.1 
  71        71   980     311.9 
  72        72   981     316.7 
  73        73   981     317.7 
  74        74   982     323.5 
  75        75   981     338.1 
  76        76   980     332.7 
  77        77   980     327.2 
  78        78   982     334.4 
  79        79   982     323.8 
  80        80   980     331.6 
  81        81   981     328.9 
  82        82   980     317.7 
  83        83   982     313.6 
  84        84   980     319.0 
  85        85   980     328.2 
  86        86   980     323.1 
  87        87   982     317.7 
  88        88   981     320.4 
  89        89   980     328.2 
  90        90   981     321.4 
  91        91   981     332.3 
  92        92   982     335.7 
  93        93   980     339.1 
  94        94   980     322.4 
  95        95   980     317.7 
  96        96   982     349.6 
  97        97   981     341.1 
  98        98   980     331.6 
  99        99   980     305.1 
 100       100   980     322.4 
 101       101   981     340.5 
 102       102   980     341.8 
 103       103   980     346.9 
 104       104   980     338.4 
 105       105   982     323.5 
 106       106   980     329.6 
 107       107   980     340.8 
 108       108   980     327.9 
 109       109   981     329.9 
 110       110   980     331.0 
 111       111   980     327.6 
 112       112   980     339.8 
 113       113   980     321.4 
 114       114   981     330.6 
 115       115   980     313.9 
 116       116   980     333.0 
 117       117   980     320.4 
 118       118   980     322.1 
 119       119   980     324.8 
 120       120   979     334.0 
 121       121   980     301.0 
 122       122   980     331.3 
 123       123   981     340.1 
 124       124   979     311.9 
 125       125   980     313.6 
 126       126   980     337.1 
 127       127   981     320.1 
 128       128   980     324.1 
 129       129   979     328.6 
 130       130   979     318.7 
 131       131   980     328.2 
 132       132   980     317.3 
 133       133   979     322.4 
 134       134   979     311.5 
 135       135   979     330.9 
 136       136   980     316.0 
 137       137   979     299.6 
 138       138   979     311.5 
 139       139   979     325.2 
 140       140   980     321.1 
 141       141   980     324.8 
 142       142   978     300.3 
 143       143   980     339.5 
 144       144   979     330.3 
 145       145   980     321.4 
 146       146   978     304.7 
 147       147   979     311.2 
 148       148   979     330.3 
 149       149   979     319.7 
 150       150   979     319.7 
 151       210  1000     375.3 
 152       270   997     328.0 
 153       330  1000     288.0 
 154       390   996     286.8 
 155       450   996     268.7 
 156       510   996     290.2 
 157       570   994     307.2 
 158       630   998     283.6 
 159       810   983     338.1 
 160       990   980     251.7 
 161      1170   985     292.0 
 162      1350   986     257.3 
 163      1530   981     278.6 
 164      2070   980     211.6 
 165      2691   973     274.1 
 166      3405   978     254.3 
 167      4226   978     242.3 
 168      5170   976     250.7 
 169      6256   975     267.4 
 170      7505   974     222.1 
 171      8941   977     237.1 
 172     10592   975     291.6 
 173     12491   973     225.4 
 174     14675   979     243.4 
 175     17187   975     241.4 
 176     20076   974     200.5 
 177     23398   977     207.1 
 178     27218   979     271.4 
 179     31611   980     229.3 
 180     36663   980     214.3 
 181     42473   977     252.5 
 182     49155   978     179.6 
 183     56839   980     222.8 
 184     65676   977     214.3 
 185     75839   981     214.3 
   1         1   156     329.1 
   2         2   817     291.7 
   3         3   953     296.3 
   4         4   969     293.4 
   5         5   972     309.7 
   6         6   973     288.1 
   7         7   973     303.5 
   8         8   977     333.7 
   9         9   974     332.0 
  10        10   975     363.1 
  11        11   976     357.9 
  12        12   977     362.7 
  13        13   977     382.5 
  14        14   977     372.6 
  15        15   977     397.5 
  16        16   978     377.3 
  17        17   980     387.4 
  18        18   977     389.6 
  19        19   978     366.4 
  20        20   979     347.6 
  21        21   980     363.9 
  22        22   979     372.1 
  23        23   979     351.0 
  24        24   979     354.4 
  25        25   980     348.3 
  26        26   980     327.6 
  27        27   978     337.1 
  28        28   980     302.4 
  29        29   980     331.6 
  30        30   980     331.6 
  31        31   980     331.6 
  32        32   980     321.8 
  33        33   980     311.2 
  34        34   981     328.2 
  35        35   981     356.4 
  36        36   980     328.9 
  37        37   981     338.8 
  38        38   980     322.4 
  39        39   981     334.0 
  40        40   980     335.0 
  41        41   981     316.3 
  42        42   980     319.7 
  43        43   982     323.5 
  44        44   981     332.0 
  45        45   980     323.5 
  46        46   981     343.9 
  47        47   982     339.4 
  48        48   982     328.6 
  49        49   981     327.2 
  50        50   981     327.2 
  51        51   980     319.7 
  52        52   983     341.1 
  53        53   981     322.1 
  54        54   981     329.3 
  55        55   981     332.0 
  56        56   982     329.9 
  57        57   982     332.0 
  58        58   981     329.6 
  59        59   981     328.6 
  60        60   980     321.1 
  61        61   983     319.4 
  62        62   981     316.7 
  63        63   981     327.9 
  64        64   981     352.4 
  65        65   982     319.4 
  66        66   982     339.1 
  67        67   981     320.8 
  68        68   981     331.0 
  69        69   981     339.8 
  70        70   983     315.4 
  71        71   980     349.3 
  72        72   981     310.6 
  73        73   981     333.3 
  74        74   982     313.0 
  75        75   981     327.9 
  76        76   980     324.1 
  77        77   980     333.7 
  78        78   982     338.4 
  79        79   982     326.9 
  80        80   980     331.3 
  81        81   981     349.3 
  82        82   980     331.6 
  83        83   982     333.0 
  84        84   980     329.9 
  85        85   980     324.8 
  86        86   980     329.9 
  87        87   982     312.6 
  88        88   981     325.5 
  89        89   980     345.9 
  90        90   981     332.7 
  91        91   981     299.4 
  92        92   982     321.5 
  93        93   980     342.5 
  94        94   980     323.8 
  95        95   980     318.7 
  96        96   982     342.8 
  97        97   981     319.7 
  98        98   980     353.7 
  99        99   980     351.0 
 100       100   980     358.8 
 101       101   981     330.6 
 102       102   980     365.0 
 103       103   980     334.7 
 104       104   980     346.3 
 105       105   982     330.6 
 106       106   980     362.9 
 107       107   980     359.2 
 108       108   980     335.0 
 109       109   981     343.2 
 110       110   980     339.5 
 111       111   980     356.1 
 112       112   980     338.4 
 113       113   980     338.8 
 114       114   981     343.5 
 115       115   980     373.8 
 116       116   980     346.9 
 117       117   980     335.7 
 118       118   980     355.8 
 119       119   980     336.7 
 120       120   979     340.8 
 121       121   980     335.7 
 122       122   980     342.2 
 123       123   981     341.5 
 124       124   979     337.8 
 125       125   980     347.3 
 126       126   980     349.3 
 127       127   981     339.8 
 128       128   980     358.2 
 129       129   979     340.5 
 130       130   979     337.8 
 131       131   980     313.6 
 132       132   980     351.7 
 133       133   979     328.2 
 134       134   979     339.8 
 135       135   979     330.6 
 136       136   980     354.4 
 137       137   979     340.8 
 138       138   979     331.3 
 139       139   979     348.3 
 140       140   980     352.4 
 141       141   980     339.5 
 142       142   978     332.0 
 143       143   980     327.9 
 144       144   979     376.2 
 145       145   980     347.3 
 146       146   978     339.8 
 147       147   979     342.5 
 148       148   979     349.7 
 149       149   979     351.7 
 150       150   979     351.7 
 151       210  1000     308.3 
 152       270   997     349.0 
 153       330  1000     314.0 
 154       390   996     329.7 
 155       450   996     315.6 
 156       510   996     313.3 
 157       570   994     294.1 
 158       630   998     338.7 
 159       810   983     317.7 
 160       990   980     294.2 
 161      1170   985     277.2 
 162      1350   986     295.5 
 163      1530   981     285.8 
 164      2070   980     303.7 
 165      2691   973     298.7 
 166      3405   978     258.7 
 167      4226   978     291.1 
 168      5170   976     308.7 
 169      6256   975     280.3 
 170      7505   974     285.1 
 171      8941   977     275.3 
 172     10592   975     298.5 
 173     12491   973     275.8 
 174     14675   979     252.3 
 175     17187   975     248.9 
 176     20076   974     248.8 
 177     23398   977     235.4 
 178     27218   979     218.6 
 179     31611   980     263.9 
 180     36663   980     249.0 
 181     42473   977     243.3 
 182     49155   978     222.6 
 183     56839   980     237.8 
 184     65676   977     238.1 
 185     75839   981     238.1 
