PC/104 FIRe Fluorometer 2.0.0
 5/14/2025     37248
LED Color:           blue
Gain:               1500
Sample Delay (msec):    10
Number Samples:   3
STF (usec):      150
STRP (#samples):       35
STRI (usec):       60
MTF (ms):        0
MTF (#samples):     0
MTRP (#samples):        0
MTRI (usec):      100
PQLen:     4
Ambient Light Source Power: Off
PAR (uMol/m^2/s):900.00
Comment:
Depth(m):   2.2
Temperature(C):  34.6
Battery(V):  16.50

         Time    EX   Fl-Yield 
DATA--------------------------
   0         0     0       0.0 
   1         1   156     149.6 
   2         2   817     214.2 
   3         3   953     244.5 
   4         4   969     237.4 
   5         5   972     256.2 
   6         6   973     219.3 
   7         7   973     248.7 
   8         8   977     266.1 
   9         9   974     264.9 
  10        10   975     252.3 
  11        11   976     246.9 
  12        12   977     246.3 
  13        13   977     266.8 
  14        14   977     248.4 
  15        15   977     259.0 
  16        16   978     254.3 
  17        17   980     268.7 
  18        18   977     256.6 
  19        19   978     247.8 
  20        20   979     258.4 
  21        21   980     280.3 
  22        22   979     272.4 
  23        23   979     255.0 
  24        24   979     279.9 
  25        25   980     266.3 
  26        26   980     277.9 
  27        27   978     291.1 
  28        28   980     296.9 
  29        29   980     281.6 
  30        30   980     283.3 
  31        31   980     270.7 
  32        32   980     264.6 
  33        33   980     299.3 
  34        34   981     303.4 
  35        35   981     300.4 
  36        36   980     282.3 
  37        37   981     298.3 
  38        38   980     301.0 
  39        39   981     311.9 
  40        40   980     288.4 
  41        41   981     304.1 
  42        42   980     300.7 
  43        43   982     302.1 
  44        44   981     314.6 
  45        45   980     305.4 
  46        46   981     308.2 
  47        47   982     289.9 
  48        48   982     294.3 
  49        49   981     297.7 
  50        50   981     290.5 
  51        51   980     308.2 
  52        52   983     307.6 
  53        53   981     287.1 
  54        54   981     315.7 
  55        55   981     293.2 
  56        56   982     288.9 
  57        57   982     287.5 
  58        58   981     301.7 
  59        59   981     304.5 
  60        60   980     293.2 
  61        61   983     301.5 
  62        62   981     290.5 
  63        63   981     298.0 
  64        64   981     288.8 
  65        65   982     293.3 
  66        66   982     298.0 
  67        67   981     303.4 
  68        68   981     300.0 
  69        69   981     307.8 
  70        70   983     284.2 
  71        71   980     296.3 
  72        72   981     306.8 
  73        73   981     293.9 
  74        74   982     314.0 
  75        75   981     295.3 
  76        76   980     299.7 
  77        77   980     298.6 
  78        78   982     299.0 
  79        79   982     314.7 
  80        80   980     312.6 
  81        81   981     303.1 
  82        82   980     304.4 
  83        83   982     303.1 
  84        84   980     295.9 
  85        85   980     298.6 
  86        86   980     292.2 
  87        87   982     305.5 
  88        88   981     311.9 
  89        89   980     317.0 
  90        90   981     315.0 
  91        91   981     300.4 
  92        92   982     316.4 
  93        93   980     305.8 
  94        94   980     329.3 
  95        95   980     303.7 
  96        96   982     304.5 
  97        97   981     304.8 
  98        98   980     305.8 
  99        99   980     302.4 
 100       100   980     278.9 
 101       101   981     319.7 
 102       102   980     307.5 
 103       103   980     325.5 
 104       104   980     325.5 
 105       105   982     316.7 
 106       106   980     319.0 
 107       107   980     307.5 
 108       108   980     317.3 
 109       109   981     336.1 
 110       110   980     320.1 
 111       111   980     325.2 
 112       112   980     325.5 
 113       113   980     319.0 
 114       114   981     334.7 
 115       115   980     324.8 
 116       116   980     318.0 
 117       117   980     327.6 
 118       118   980     328.6 
 119       119   980     338.8 
 120       120   979     330.3 
 121       121   980     339.5 
 122       122   980     313.3 
 123       123   981     324.5 
 124       124   979     325.2 
 125       125   980     334.7 
 126       126   980     320.1 
 127       127   981     321.4 
 128       128   980     331.3 
 129       129   979     319.7 
 130       130   979     333.7 
 131       131   980     337.8 
 132       132   980     340.8 
 133       133   979     323.5 
 134       134   979     329.2 
 135       135   979     325.8 
 136       136   980     327.9 
 137       137   979     303.0 
 138       138   979     307.1 
 139       139   979     323.8 
 140       140   980     333.7 
 141       141   980     307.1 
 142       142   978     312.2 
 143       143   980     314.6 
 144       144   979     341.5 
 145       145   980     326.5 
 146       146   978     323.1 
 147       147   979     320.1 
 148       148   979     309.8 
 149       149   979     326.5 
 150       150   979     326.5 
 151       210  1000     301.3 
 152       270   997     308.6 
 153       330  1000     288.0 
 154       390   996     269.7 
 155       450   996     316.9 
 156       510   996     252.0 
 157       570   994     286.7 
 158       630   998     250.5 
 159       810   983     295.0 
 160       990   980     238.8 
 161      1170   985     246.4 
 162      1350   986     270.1 
 163      1530   981     292.2 
 164      2070   980     252.0 
 165      2691   973     240.5 
 166      3405   978     210.6 
 167      4226   978     216.4 
 168      5170   976     218.2 
 169      6256   975     241.7 
 170      7505   974     177.6 
 171      8941   977     259.6 
 172     10592   975     228.0 
 173     12491   973     245.3 
 174     14675   979     215.2 
 175     17187   975     280.7 
 176     20076   974     235.1 
 177     23398   977     207.1 
 178     27218   979     261.8 
 179     31611   980     181.3 
 180     36663   980     197.3 
 181     42473   977     226.9 
 182     49155   978     217.8 
 183     56839   980     227.6 
 184     65676   977     209.5 
 185     75839   981     209.5 
   1         1   156     224.4 
   2         2   817     292.1 
   3         3   953     287.5 
   4         4   969     272.8 
   5         5   972     270.6 
   6         6   973     260.7 
   7         7   973     288.5 
   8         8   977     291.4 
   9         9   974     333.7 
  10        10   975     323.4 
  11        11   976     354.5 
  12        12   977     347.0 
  13        13   977     331.3 
  14        14   977     359.9 
  15        15   977     368.5 
  16        16   978     358.6 
  17        17   980     350.7 
  18        18   977     327.2 
  19        19   978     350.0 
  20        20   979     338.1 
  21        21   980     338.8 
  22        22   979     322.8 
  23        23   979     323.5 
  24        24   979     313.9 
  25        25   980     304.8 
  26        26   980     287.8 
  27        27   978     302.3 
  28        28   980     298.3 
  29        29   980     307.1 
  30        30   980     291.2 
  31        31   980     306.5 
  32        32   980     289.1 
  33        33   980     286.1 
  34        34   981     279.0 
  35        35   981     264.0 
  36        36   980     299.3 
  37        37   981     296.3 
  38        38   980     267.3 
  39        39   981     264.7 
  40        40   980     300.0 
  41        41   981     289.5 
  42        42   980     269.4 
  43        43   982     271.2 
  44        44   981     300.7 
  45        45   980     290.5 
  46        46   981     308.5 
  47        47   982     283.1 
  48        48   982     289.5 
  49        49   981     299.0 
  50        50   981     313.3 
  51        51   980     283.7 
  52        52   983     290.3 
  53        53   981     295.3 
  54        54   981     292.6 
  55        55   981     310.6 
  56        56   982     283.8 
  57        57   982     292.9 
  58        58   981     315.3 
  59        59   981     316.0 
  60        60   980     283.7 
  61        61   983     306.5 
  62        62   981     300.7 
  63        63   981     304.8 
  64        64   981     288.1 
  65        65   982     285.1 
  66        66   982     304.1 
  67        67   981     309.2 
  68        68   981     283.0 
  69        69   981     307.2 
  70        70   983     286.2 
  71        71   980     314.6 
  72        72   981     293.9 
  73        73   981     272.9 
  74        74   982     301.4 
  75        75   981     297.3 
  76        76   980     306.1 
  77        77   980     310.2 
  78        78   982     309.9 
  79        79   982     298.0 
  80        80   980     317.7 
  81        81   981     284.7 
  82        82   980     294.2 
  83        83   982     317.4 
  84        84   980     307.1 
  85        85   980     292.5 
  86        86   980     310.5 
  87        87   982     309.9 
  88        88   981     301.7 
  89        89   980     316.7 
  90        90   981     293.2 
  91        91   981     318.0 
  92        92   982     319.8 
  93        93   980     302.0 
  94        94   980     311.6 
  95        95   980     311.2 
  96        96   982     326.5 
  97        97   981     304.1 
  98        98   980     297.6 
  99        99   980     309.5 
 100       100   980     318.4 
 101       101   981     325.9 
 102       102   980     320.1 
 103       103   980     310.9 
 104       104   980     326.5 
 105       105   982     308.2 
 106       106   980     313.6 
 107       107   980     301.0 
 108       108   980     317.0 
 109       109   981     308.9 
 110       110   980     289.8 
 111       111   980     308.5 
 112       112   980     311.9 
 113       113   980     326.5 
 114       114   981     312.3 
 115       115   980     296.6 
 116       116   980     313.6 
 117       117   980     328.9 
 118       118   980     299.0 
 119       119   980     304.4 
 120       120   979     314.3 
 121       121   980     314.3 
 122       122   980     323.5 
 123       123   981     309.9 
 124       124   979     298.6 
 125       125   980     307.1 
 126       126   980     338.4 
 127       127   981     304.1 
 128       128   980     294.9 
 129       129   979     308.5 
 130       130   979     334.4 
 131       131   980     293.2 
 132       132   980     306.8 
 133       133   979     305.1 
 134       134   979     335.0 
 135       135   979     306.4 
 136       136   980     292.9 
 137       137   979     316.3 
 138       138   979     320.1 
 139       139   979     318.7 
 140       140   980     310.2 
 141       141   980     297.6 
 142       142   978     327.2 
 143       143   980     314.6 
 144       144   979     298.9 
 145       145   980     308.8 
 146       146   978     319.0 
 147       147   979     308.1 
 148       148   979     307.1 
 149       149   979     289.8 
 150       150   979     289.8 
 151       210  1000     262.0 
 152       270   997     269.5 
 153       330  1000     299.0 
 154       390   996     277.8 
 155       450   996     307.2 
 156       510   996     282.1 
 157       570   994     306.5 
 158       630   998     233.1 
 159       810   983     306.5 
 160       990   980     241.8 
 161      1170   985     293.1 
 162      1350   986     281.6 
 163      1530   981     276.6 
 164      2070   980     290.5 
 165      2691   973     313.5 
 166      3405   978     238.2 
 167      4226   978     236.9 
 168      5170   976     264.3 
 169      6256   975     251.6 
 170      7505   974     268.0 
 171      8941   977     248.4 
 172     10592   975     230.4 
 173     12491   973     256.3 
 174     14675   979     262.2 
 175     17187   975     242.7 
 176     20076   974     248.8 
 177     23398   977     245.3 
 178     27218   979     228.8 
 179     31611   980     200.7 
 180     36663   980     237.8 
 181     42473   977     200.3 
 182     49155   978     226.0 
 183     56839   980     207.5 
 184     65676   977     260.0 
 185     75839   981     260.0 
