PC/104 FIRe Fluorometer 2.0.0
 5/14/2025     43162
LED Color:           blue
Gain:               1600
Sample Delay (msec):    10
Number Samples:   3
STF (usec):      150
STRP (#samples):       35
STRI (usec):       60
MTF (ms):        0
MTF (#samples):     0
MTRP (#samples):        0
MTRI (usec):      100
PQLen:     4
Ambient Light Source Power: Off
PAR (uMol/m^2/s):630.00
Comment:
Depth(m):   2.9
Temperature(C):  35.8
Battery(V):  16.43

         Time    EX   Fl-Yield 
DATA--------------------------
   0         0     0       0.0 
   1         1   156     265.0 
   2         2   817     244.8 
   3         3   953     248.0 
   4         4   969     255.9 
   5         5   972     250.0 
   6         6   973     258.7 
   7         7   973     275.1 
   8         8   977     286.9 
   9         9   974     278.9 
  10        10   975     268.7 
  11        11   976     256.8 
  12        12   977     292.4 
  13        13   977     295.5 
  14        14   977     301.9 
  15        15   977     308.1 
  16        16   978     305.0 
  17        17   980     304.4 
  18        18   977     305.4 
  19        19   978     296.9 
  20        20   979     298.6 
  21        21   980     315.6 
  22        22   979     319.4 
  23        23   979     311.9 
  24        24   979     316.3 
  25        25   980     337.8 
  26        26   980     326.9 
  27        27   978     343.6 
  28        28   980     339.5 
  29        29   980     342.9 
  30        30   980     345.6 
  31        31   980     333.3 
  32        32   980     368.4 
  33        33   980     362.2 
  34        34   981     344.2 
  35        35   981     364.9 
  36        36   980     329.9 
  37        37   981     365.6 
  38        38   980     381.3 
  39        39   981     342.5 
  40        40   980     335.7 
  41        41   981     377.8 
  42        42   980     366.3 
  43        43   982     373.4 
  44        44   981     360.5 
  45        45   980     390.1 
  46        46   981     350.7 
  47        47   982     346.9 
  48        48   982     351.0 
  49        49   981     348.3 
  50        50   981     360.9 
  51        51   980     364.6 
  52        52   983     345.9 
  53        53   981     348.6 
  54        54   981     369.4 
  55        55   981     347.6 
  56        56   982     369.0 
  57        57   982     346.6 
  58        58   981     385.3 
  59        59   981     354.1 
  60        60   980     360.9 
  61        61   983     402.5 
  62        62   981     364.9 
  63        63   981     340.5 
  64        64   981     350.0 
  65        65   982     382.2 
  66        66   982     360.8 
  67        67   981     364.3 
  68        68   981     361.2 
  69        69   981     360.9 
  70        70   983     363.9 
  71        71   980     377.6 
  72        72   981     375.8 
  73        73   981     367.0 
  74        74   982     353.7 
  75        75   981     349.3 
  76        76   980     363.3 
  77        77   980     390.5 
  78        78   982     389.3 
  79        79   982     371.4 
  80        80   980     370.1 
  81        81   981     358.1 
  82        82   980     370.7 
  83        83   982     372.7 
  84        84   980     377.9 
  85        85   980     388.8 
  86        86   980     365.3 
  87        87   982     382.9 
  88        88   981     370.4 
  89        89   980     385.7 
  90        90   981     375.5 
  91        91   981     368.7 
  92        92   982     359.5 
  93        93   980     370.7 
  94        94   980     379.9 
  95        95   980     372.1 
  96        96   982     351.0 
  97        97   981     360.9 
  98        98   980     371.1 
  99        99   980     346.6 
 100       100   980     373.8 
 101       101   981     358.8 
 102       102   980     396.3 
 103       103   980     369.0 
 104       104   980     349.0 
 105       105   982     371.4 
 106       106   980     372.4 
 107       107   980     377.9 
 108       108   980     404.1 
 109       109   981     384.3 
 110       110   980     369.4 
 111       111   980     371.4 
 112       112   980     370.7 
 113       113   980     379.3 
 114       114   981     382.9 
 115       115   980     383.7 
 116       116   980     399.7 
 117       117   980     350.3 
 118       118   980     341.8 
 119       119   980     388.1 
 120       120   979     368.7 
 121       121   980     367.3 
 122       122   980     359.2 
 123       123   981     405.0 
 124       124   979     398.7 
 125       125   980     389.5 
 126       126   980     372.4 
 127       127   981     361.5 
 128       128   980     391.2 
 129       129   979     362.6 
 130       130   979     384.4 
 131       131   980     370.1 
 132       132   980     372.4 
 133       133   979     388.8 
 134       134   979     365.3 
 135       135   979     398.0 
 136       136   980     390.8 
 137       137   979     397.7 
 138       138   979     398.7 
 139       139   979     375.6 
 140       140   980     378.2 
 141       141   980     400.0 
 142       142   978     398.8 
 143       143   980     378.2 
 144       144   979     374.9 
 145       145   980     393.9 
 146       146   978     403.2 
 147       147   979     415.7 
 148       148   979     406.5 
 149       149   979     423.9 
 150       150   979     423.9 
 151       210  1000     348.0 
 152       270   997     407.6 
 153       330  1000     337.7 
 154       390   996     360.8 
 155       450   996     327.6 
 156       510   996     336.0 
 157       570   994     315.9 
 158       630   998     347.4 
 159       810   983     322.1 
 160       990   980     291.8 
 161      1170   985     277.5 
 162      1350   986     317.4 
 163      1530   981     256.2 
 164      2070   980     276.9 
 165      2691   973     263.1 
 166      3405   978     276.1 
 167      4226   978     298.6 
 168      5170   976     266.1 
 169      6256   975     277.3 
 170      7505   974     270.4 
 171      8941   977     245.3 
 172     10592   975     219.1 
 173     12491   973     285.4 
 174     14675   979     239.7 
 175     17187   975     291.6 
 176     20076   974     272.8 
 177     23398   977     269.2 
 178     27218   979     181.5 
 179     31611   980     222.8 
 180     36663   980     221.8 
 181     42473   977     225.9 
 182     49155   978     255.6 
 183     56839   980     215.3 
 184     65676   977     212.6 
 185     75839   981     212.6 
   1         1   156     303.4 
   2         2   817     384.3 
   3         3   953     406.8 
   4         4   969     404.5 
   5         5   972     395.7 
   6         6   973     391.2 
   7         7   973     369.3 
   8         8   977     414.5 
   9         9   974     438.4 
  10        10   975     462.9 
  11        11   976     438.5 
  12        12   977     456.2 
  13        13   977     464.7 
  14        14   977     474.2 
  15        15   977     484.5 
  16        16   978     471.0 
  17        17   980     470.4 
  18        18   977     483.8 
  19        19   978     464.9 
  20        20   979     476.3 
  21        21   980     438.4 
  22        22   979     455.6 
  23        23   979     432.1 
  24        24   979     427.3 
  25        25   980     436.7 
  26        26   980     428.9 
  27        27   978     436.3 
  28        28   980     407.5 
  29        29   980     392.9 
  30        30   980     404.8 
  31        31   980     434.0 
  32        32   980     390.8 
  33        33   980     416.7 
  34        34   981     429.5 
  35        35   981     406.7 
  36        36   980     412.9 
  37        37   981     406.0 
  38        38   980     429.6 
  39        39   981     435.9 
  40        40   980     399.3 
  41        41   981     390.4 
  42        42   980     440.5 
  43        43   982     435.5 
  44        44   981     416.9 
  45        45   980     405.1 
  46        46   981     427.1 
  47        47   982     433.1 
  48        48   982     447.4 
  49        49   981     434.9 
  50        50   981     442.1 
  51        51   980     443.9 
  52        52   983     441.8 
  53        53   981     427.8 
  54        54   981     446.5 
  55        55   981     450.2 
  56        56   982     458.9 
  57        57   982     429.1 
  58        58   981     415.9 
  59        59   981     425.1 
  60        60   980     462.6 
  61        61   983     443.9 
  62        62   981     438.0 
  63        63   981     412.8 
  64        64   981     418.3 
  65        65   982     425.7 
  66        66   982     437.5 
  67        67   981     416.6 
  68        68   981     438.0 
  69        69   981     406.4 
  70        70   983     430.7 
  71        71   980     423.1 
  72        72   981     420.3 
  73        73   981     430.2 
  74        74   982     422.9 
  75        75   981     394.5 
  76        76   980     407.1 
  77        77   980     434.4 
  78        78   982     432.5 
  79        79   982     426.0 
  80        80   980     437.1 
  81        81   981     433.6 
  82        82   980     413.9 
  83        83   982     439.2 
  84        84   980     420.7 
  85        85   980     443.5 
  86        86   980     424.8 
  87        87   982     405.6 
  88        88   981     394.5 
  89        89   980     431.6 
  90        90   981     438.7 
  91        91   981     421.0 
  92        92   982     432.1 
  93        93   980     443.9 
  94        94   980     448.3 
  95        95   980     442.5 
  96        96   982     438.6 
  97        97   981     460.8 
  98        98   980     432.3 
  99        99   980     465.0 
 100       100   980     439.1 
 101       101   981     438.3 
 102       102   980     457.1 
 103       103   980     460.9 
 104       104   980     421.4 
 105       105   982     462.3 
 106       106   980     436.4 
 107       107   980     460.9 
 108       108   980     446.6 
 109       109   981     437.3 
 110       110   980     446.3 
 111       111   980     459.9 
 112       112   980     434.7 
 113       113   980     463.9 
 114       114   981     426.4 
 115       115   980     440.5 
 116       116   980     457.1 
 117       117   980     418.7 
 118       118   980     453.7 
 119       119   980     444.9 
 120       120   979     450.8 
 121       121   980     445.9 
 122       122   980     449.7 
 123       123   981     456.7 
 124       124   979     459.7 
 125       125   980     445.2 
 126       126   980     413.3 
 127       127   981     452.3 
 128       128   980     454.1 
 129       129   979     447.7 
 130       130   979     427.0 
 131       131   980     455.4 
 132       132   980     424.8 
 133       133   979     446.4 
 134       134   979     417.1 
 135       135   979     435.1 
 136       136   980     434.0 
 137       137   979     448.8 
 138       138   979     430.4 
 139       139   979     410.3 
 140       140   980     434.7 
 141       141   980     464.3 
 142       142   978     421.9 
 143       143   980     428.2 
 144       144   979     428.0 
 145       145   980     448.3 
 146       146   978     403.2 
 147       147   979     421.9 
 148       148   979     441.9 
 149       149   979     437.2 
 150       150   979     437.2 
 151       210  1000     399.0 
 152       270   997     384.8 
 153       330  1000     425.3 
 154       390   996     392.6 
 155       450   996     405.0 
 156       510   996     397.6 
 157       570   994     407.4 
 158       630   998     379.8 
 159       810   983     389.6 
 160       990   980     355.8 
 161      1170   985     430.1 
 162      1350   986     377.3 
 163      1530   981     444.4 
 164      2070   980     421.4 
 165      2691   973     328.2 
 166      3405   978     396.4 
 167      4226   978     398.1 
 168      5170   976     374.7 
 169      6256   975     414.7 
 170      7505   974     403.1 
 171      8941   977     357.2 
 172     10592   975     389.7 
 173     12491   973     339.2 
 174     14675   979     414.7 
 175     17187   975     314.5 
 176     20076   974     379.2 
 177     23398   977     329.6 
 178     27218   979     312.9 
 179     31611   980     355.4 
 180     36663   980     308.2 
 181     42473   977     314.9 
 182     49155   978     288.0 
 183     56839   980     289.1 
 184     65676   977     306.7 
 185     75839   981     306.7 
