PC/104 FIRe Fluorometer 2.0.0
 5/14/2025     45159
LED Color:           blue
Gain:               2000
Sample Delay (msec):    10
Number Samples:   3
STF (usec):      150
STRP (#samples):       35
STRI (usec):       60
MTF (ms):        0
MTF (#samples):     0
MTRP (#samples):        0
MTRI (usec):      100
PQLen:     4
Ambient Light Source Power: Off
PAR (uMol/m^2/s):900.00
Comment:
Depth(m):   2.5
Temperature(C):  36.0
Battery(V):  16.40

         Time    EX   Fl-Yield 
DATA--------------------------
   0         0     0       0.0 
   1         1   156     480.8 
   2         2   817     262.7 
   3         3   953     298.4 
   4         4   969     297.9 
   5         5   972     344.0 
   6         6   973     312.4 
   7         7   973     297.4 
   8         8   977     300.6 
   9         9   974     372.0 
  10        10   975     345.6 
  11        11   976     351.4 
  12        12   977     320.0 
  13        13   977     289.0 
  14        14   977     358.9 
  15        15   977     321.4 
  16        16   978     336.1 
  17        17   980     329.9 
  18        18   977     381.1 
  19        19   978     317.3 
  20        20   979     385.8 
  21        21   980     356.5 
  22        22   979     414.7 
  23        23   979     358.5 
  24        24   979     326.2 
  25        25   980     370.7 
  26        26   980     386.4 
  27        27   978     405.2 
  28        28   980     376.2 
  29        29   980     349.3 
  30        30   980     433.0 
  31        31   980     392.5 
  32        32   980     358.8 
  33        33   980     387.4 
  34        34   981     424.7 
  35        35   981     400.6 
  36        36   980     367.3 
  37        37   981     392.1 
  38        38   980     369.0 
  39        39   981     445.1 
  40        40   980     430.3 
  41        41   981     388.4 
  42        42   980     402.7 
  43        43   982     476.6 
  44        44   981     429.5 
  45        45   980     440.8 
  46        46   981     424.4 
  47        47   982     437.5 
  48        48   982     403.6 
  49        49   981     466.5 
  50        50   981     384.6 
  51        51   980     406.8 
  52        52   983     399.8 
  53        53   981     445.5 
  54        54   981     451.9 
  55        55   981     407.1 
  56        56   982     478.3 
  57        57   982     456.6 
  58        58   981     435.9 
  59        59   981     444.4 
  60        60   980     423.1 
  61        61   983     460.2 
  62        62   981     316.0 
  63        63   981     431.2 
  64        64   981     416.9 
  65        65   982     426.0 
  66        66   982     425.7 
  67        67   981     430.9 
  68        68   981     475.7 
  69        69   981     419.3 
  70        70   983     460.8 
  71        71   980     399.7 
  72        72   981     408.1 
  73        73   981     459.1 
  74        74   982     402.2 
  75        75   981     490.0 
  76        76   980     415.0 
  77        77   980     469.0 
  78        78   982     397.5 
  79        79   982     420.6 
  80        80   980     439.8 
  81        81   981     492.4 
  82        82   980     417.3 
  83        83   982     395.1 
  84        84   980     460.5 
  85        85   980     451.0 
  86        86   980     466.3 
  87        87   982     400.2 
  88        88   981     458.7 
  89        89   980     472.8 
  90        90   981     491.3 
  91        91   981     481.5 
  92        92   982     403.9 
  93        93   980     450.7 
  94        94   980     473.1 
  95        95   980     485.4 
  96        96   982     421.6 
  97        97   981     470.9 
  98        98   980     423.1 
  99        99   980     447.3 
 100       100   980     401.0 
 101       101   981     413.9 
 102       102   980     441.2 
 103       103   980     469.4 
 104       104   980     433.7 
 105       105   982     432.1 
 106       106   980     468.4 
 107       107   980     505.4 
 108       108   980     444.6 
 109       109   981     417.6 
 110       110   980     454.8 
 111       111   980     513.3 
 112       112   980     480.6 
 113       113   980     476.2 
 114       114   981     462.1 
 115       115   980     485.4 
 116       116   980     520.1 
 117       117   980     458.2 
 118       118   980     462.9 
 119       119   980     506.1 
 120       120   979     534.2 
 121       121   980     483.3 
 122       122   980     534.0 
 123       123   981     502.9 
 124       124   979     454.5 
 125       125   980     547.6 
 126       126   980     538.8 
 127       127   981     437.0 
 128       128   980     557.5 
 129       129   979     547.5 
 130       130   979     480.1 
 131       131   980     445.9 
 132       132   980     517.7 
 133       133   979     508.3 
 134       134   979     480.4 
 135       135   979     456.6 
 136       136   980     491.8 
 137       137   979     499.8 
 138       138   979     514.8 
 139       139   979     483.5 
 140       140   980     466.7 
 141       141   980     504.8 
 142       142   978     433.5 
 143       143   980     452.7 
 144       144   979     461.0 
 145       145   980     441.2 
 146       146   978     455.7 
 147       147   979     403.8 
 148       148   979     437.2 
 149       149   979     377.3 
 150       150   979     377.3 
 151       210  1000     404.0 
 152       270   997     438.6 
 153       330  1000     487.0 
 154       390   996     465.9 
 155       450   996     454.1 
 156       510   996     324.3 
 157       570   994     340.7 
 158       630   998     411.5 
 159       810   983     367.9 
 160       990   980     370.1 
 161      1170   985     446.4 
 162      1350   986     460.8 
 163      1530   981     392.5 
 164      2070   980     363.6 
 165      2691   973     354.6 
 166      3405   978     310.8 
 167      4226   978     382.8 
 168      5170   976     294.4 
 169      6256   975     255.7 
 170      7505   974     345.3 
 171      8941   977     335.4 
 172     10592   975     324.1 
 173     12491   973     447.4 
 174     14675   979     285.7 
 175     17187   975     332.0 
 176     20076   974     328.2 
 177     23398   977     347.0 
 178     27218   979     460.3 
 179     31611   980     192.5 
 180     36663   980     397.3 
 181     42473   977     303.0 
 182     49155   978     293.8 
 183     56839   980     282.0 
 184     65676   977     256.6 
 185     75839   981     256.6 
   1         1   156     656.0 
   2         2   817     630.4 
   3         3   953     545.6 
   4         4   969     551.1 
   5         5   972     502.4 
   6         6   973     575.9 
   7         7   973     599.5 
   8         8   977     651.7 
   9         9   974     665.6 
  10        10   975     699.8 
  11        11   976     645.8 
  12        12   977     771.4 
  13        13   977     763.2 
  14        14   977     764.6 
  15        15   977     734.6 
  16        16   978     747.8 
  17        17   980     734.7 
  18        18   977     807.6 
  19        19   978     714.0 
  20        20   979     714.0 
  21        21   980     670.1 
  22        22   979     677.9 
  23        23   979     638.1 
  24        24   979     623.4 
  25        25   980     639.1 
  26        26   980     618.4 
  27        27   978     577.4 
  28        28   980     599.3 
  29        29   980     598.0 
  30        30   980     560.2 
  31        31   980     622.4 
  32        32   980     561.2 
  33        33   980     607.1 
  34        34   981     523.3 
  35        35   981     655.1 
  36        36   980     631.0 
  37        37   981     558.6 
  38        38   980     536.7 
  39        39   981     642.9 
  40        40   980     616.3 
  41        41   981     619.4 
  42        42   980     582.3 
  43        43   982     575.0 
  44        44   981     605.5 
  45        45   980     575.9 
  46        46   981     563.7 
  47        47   982     595.0 
  48        48   982     644.3 
  49        49   981     604.1 
  50        50   981     655.1 
  51        51   980     594.2 
  52        52   983     673.8 
  53        53   981     676.5 
  54        54   981     682.6 
  55        55   981     574.6 
  56        56   982     652.7 
  57        57   982     595.7 
  58        58   981     603.1 
  59        59   981     601.1 
  60        60   980     600.0 
  61        61   983     652.8 
  62        62   981     562.4 
  63        63   981     578.0 
  64        64   981     596.3 
  65        65   982     645.6 
  66        66   982     613.7 
  67        67   981     618.4 
  68        68   981     560.0 
  69        69   981     629.6 
  70        70   983     621.9 
  71        71   980     558.2 
  72        72   981     610.6 
  73        73   981     604.8 
  74        74   982     583.2 
  75        75   981     581.0 
  76        76   980     584.7 
  77        77   980     642.2 
  78        78   982     532.2 
  79        79   982     609.3 
  80        80   980     577.6 
  81        81   981     592.9 
  82        82   980     642.5 
  83        83   982     622.2 
  84        84   980     539.8 
  85        85   980     602.4 
  86        86   980     594.6 
  87        87   982     693.8 
  88        88   981     516.8 
  89        89   980     573.5 
  90        90   981     617.4 
  91        91   981     656.1 
  92        92   982     596.1 
  93        93   980     643.2 
  94        94   980     636.7 
  95        95   980     651.7 
  96        96   982     629.7 
  97        97   981     624.5 
  98        98   980     602.7 
  99        99   980     640.8 
 100       100   980     695.2 
 101       101   981     596.3 
 102       102   980     574.8 
 103       103   980     586.1 
 104       104   980     637.8 
 105       105   982     597.1 
 106       106   980     618.7 
 107       107   980     665.3 
 108       108   980     686.1 
 109       109   981     594.0 
 110       110   980     595.2 
 111       111   980     651.7 
 112       112   980     675.2 
 113       113   980     638.8 
 114       114   981     619.1 
 115       115   980     629.6 
 116       116   980     662.6 
 117       117   980     648.0 
 118       118   980     599.7 
 119       119   980     561.6 
 120       120   979     651.3 
 121       121   980     649.7 
 122       122   980     639.1 
 123       123   981     623.2 
 124       124   979     612.2 
 125       125   980     609.9 
 126       126   980     628.9 
 127       127   981     643.9 
 128       128   980     649.7 
 129       129   979     675.9 
 130       130   979     657.5 
 131       131   980     678.2 
 132       132   980     618.7 
 133       133   979     640.8 
 134       134   979     655.8 
 135       135   979     617.6 
 136       136   980     586.7 
 137       137   979     628.2 
 138       138   979     604.7 
 139       139   979     614.9 
 140       140   980     611.2 
 141       141   980     629.3 
 142       142   978     581.5 
 143       143   980     621.8 
 144       144   979     622.1 
 145       145   980     608.5 
 146       146   978     657.5 
 147       147   979     576.4 
 148       148   979     644.9 
 149       149   979     630.2 
 150       150   979     630.2 
 151       210  1000     513.3 
 152       270   997     586.8 
 153       330  1000     673.3 
 154       390   996     594.7 
 155       450   996     692.8 
 156       510   996     650.6 
 157       570   994     534.5 
 158       630   998     576.8 
 159       810   983     505.9 
 160       990   980     518.4 
 161      1170   985     580.0 
 162      1350   986     631.2 
 163      1530   981     614.0 
 164      2070   980     650.7 
 165      2691   973     597.1 
 166      3405   978     520.4 
 167      4226   978     582.8 
 168      5170   976     645.8 
 169      6256   975     557.3 
 170      7505   974     538.7 
 171      8941   977     544.9 
 172     10592   975     443.4 
 173     12491   973     665.0 
 174     14675   979     515.8 
 175     17187   975     572.6 
 176     20076   974     440.1 
 177     23398   977     557.1 
 178     27218   979     563.2 
 179     31611   980     550.3 
 180     36663   980     343.5 
 181     42473   977     353.1 
 182     49155   978     450.6 
 183     56839   980     399.3 
 184     65676   977     468.8 
 185     75839   981     468.8 
