PC/104 FIRe Fluorometer 2.0.0
 5/14/2025     45125
LED Color:           blue
Gain:               1700
Sample Delay (msec):    10
Number Samples:   3
STF (usec):      150
STRP (#samples):       35
STRI (usec):       60
MTF (ms):        0
MTF (#samples):     0
MTRP (#samples):        0
MTRI (usec):      100
PQLen:     4
Ambient Light Source Power: Off
PAR (uMol/m^2/s):487.61
Comment:
Depth(m):   2.3
Temperature(C):  35.2
Battery(V):  16.42

         Time    EX   Fl-Yield 
DATA--------------------------
   0         0     0       0.0 
   1         1   156     141.0 
   2         2   817     141.6 
   3         3   953     167.2 
   4         4   969     205.4 
   5         5   972     201.6 
   6         6   973     171.6 
   7         7   973     162.7 
   8         8   977     203.0 
   9         9   974     241.6 
  10        10   975     197.6 
  11        11   976     172.5 
  12        12   977     215.6 
  13        13   977     221.8 
  14        14   977     232.3 
  15        15   977     186.3 
  16        16   978     210.6 
  17        17   980     220.1 
  18        18   977     246.3 
  19        19   978     210.6 
  20        20   979     212.1 
  21        21   980     253.1 
  22        22   979     257.4 
  23        23   979     211.1 
  24        24   979     200.2 
  25        25   980     260.2 
  26        26   980     250.3 
  27        27   978     223.6 
  28        28   980     232.0 
  29        29   980     286.1 
  30        30   980     271.1 
  31        31   980     245.2 
  32        32   980     210.2 
  33        33   980     258.5 
  34        34   981     248.0 
  35        35   981     268.8 
  36        36   980     236.7 
  37        37   981     269.1 
  38        38   980     286.7 
  39        39   981     276.2 
  40        40   980     247.3 
  41        41   981     228.0 
  42        42   980     268.7 
  43        43   982     283.8 
  44        44   981     254.2 
  45        45   980     269.0 
  46        46   981     258.6 
  47        47   982     267.8 
  48        48   982     269.9 
  49        49   981     239.6 
  50        50   981     272.5 
  51        51   980     288.1 
  52        52   983     295.0 
  53        53   981     226.0 
  54        54   981     258.2 
  55        55   981     279.6 
  56        56   982     285.1 
  57        57   982     248.8 
  58        58   981     265.0 
  59        59   981     271.5 
  60        60   980     285.7 
  61        61   983     253.3 
  62        62   981     228.0 
  63        63   981     287.8 
  64        64   981     277.3 
  65        65   982     273.3 
  66        66   982     236.3 
  67        67   981     282.0 
  68        68   981     302.1 
  69        69   981     254.8 
  70        70   983     261.1 
  71        71   980     276.5 
  72        72   981     311.6 
  73        73   981     280.0 
  74        74   982     258.0 
  75        75   981     260.6 
  76        76   980     298.0 
  77        77   980     299.7 
  78        78   982     267.5 
  79        79   982     276.3 
  80        80   980     263.6 
  81        81   981     316.0 
  82        82   980     246.6 
  83        83   982     257.3 
  84        84   980     279.9 
  85        85   980     289.8 
  86        86   980     269.0 
  87        87   982     251.5 
  88        88   981     272.5 
  89        89   980     289.1 
  90        90   981     318.0 
  91        91   981     299.7 
  92        92   982     304.1 
  93        93   980     334.0 
  94        94   980     313.9 
  95        95   980     316.0 
  96        96   982     286.8 
  97        97   981     319.4 
  98        98   980     316.0 
  99        99   980     292.9 
 100       100   980     304.1 
 101       101   981     298.7 
 102       102   980     323.8 
 103       103   980     296.9 
 104       104   980     307.8 
 105       105   982     287.2 
 106       106   980     300.0 
 107       107   980     295.9 
 108       108   980     306.5 
 109       109   981     275.2 
 110       110   980     316.0 
 111       111   980     309.2 
 112       112   980     292.5 
 113       113   980     307.5 
 114       114   981     309.5 
 115       115   980     314.3 
 116       116   980     278.9 
 117       117   980     259.9 
 118       118   980     313.9 
 119       119   980     313.6 
 120       120   979     279.5 
 121       121   980     252.7 
 122       122   980     283.0 
 123       123   981     295.3 
 124       124   979     301.7 
 125       125   980     272.8 
 126       126   980     269.4 
 127       127   981     309.5 
 128       128   980     317.3 
 129       129   979     297.6 
 130       130   979     249.9 
 131       131   980     299.7 
 132       132   980     322.4 
 133       133   979     285.0 
 134       134   979     261.5 
 135       135   979     298.3 
 136       136   980     305.8 
 137       137   979     299.6 
 138       138   979     298.6 
 139       139   979     282.9 
 140       140   980     319.0 
 141       141   980     293.9 
 142       142   978     276.8 
 143       143   980     267.7 
 144       144   979     305.8 
 145       145   980     282.3 
 146       146   978     308.5 
 147       147   979     262.2 
 148       148   979     289.8 
 149       149   979     286.7 
 150       150   979     286.7 
 151       210  1000     348.7 
 152       270   997     335.3 
 153       330  1000     340.0 
 154       390   996     249.3 
 155       450   996     230.9 
 156       510   996     167.0 
 157       570   994     187.5 
 158       630   998     214.8 
 159       810   983     251.9 
 160       990   980     192.5 
 161      1170   985     315.7 
 162      1350   986     198.8 
 163      1530   981     240.2 
 164      2070   980     291.2 
 165      2691   973     215.1 
 166      3405   978     122.0 
 167      4226   978     246.8 
 168      5170   976     130.1 
 169      6256   975     170.6 
 170      7505   974     175.9 
 171      8941   977     204.0 
 172     10592   975     205.5 
 173     12491   973     113.7 
 174     14675   979     217.6 
 175     17187   975     192.8 
 176     20076   974     166.0 
 177     23398   977     202.0 
 178     27218   979     234.6 
 179     31611   980     174.1 
 180     36663   980     190.1 
 181     42473   977     174.3 
 182     49155   978     230.1 
 183     56839   980     161.6 
 184     65676   977     209.8 
 185     75839   981     209.8 
   1         1   156      94.0 
   2         2   817     345.2 
   3         3   953     350.5 
   4         4   969     333.3 
   5         5   972     353.2 
   6         6   973     318.6 
   7         7   973     361.4 
   8         8   977     339.8 
   9         9   974     364.5 
  10        10   975     368.5 
  11        11   976     387.3 
  12        12   977     409.8 
  13        13   977     394.7 
  14        14   977     401.2 
  15        15   977     431.3 
  16        16   978     437.6 
  17        17   980     411.9 
  18        18   977     382.8 
  19        19   978     420.6 
  20        20   979     390.5 
  21        21   980     386.4 
  22        22   979     351.0 
  23        23   979     364.0 
  24        24   979     374.5 
  25        25   980     372.4 
  26        26   980     365.6 
  27        27   978     373.2 
  28        28   980     347.3 
  29        29   980     367.3 
  30        30   980     328.9 
  31        31   980     395.9 
  32        32   980     354.4 
  33        33   980     357.1 
  34        34   981     338.4 
  35        35   981     332.0 
  36        36   980     362.9 
  37        37   981     352.7 
  38        38   980     363.3 
  39        39   981     333.7 
  40        40   980     383.3 
  41        41   981     370.7 
  42        42   980     405.1 
  43        43   982     373.4 
  44        44   981     377.8 
  45        45   980     387.4 
  46        46   981     421.3 
  47        47   982     401.2 
  48        48   982     351.3 
  49        49   981     414.5 
  50        50   981     385.7 
  51        51   980     377.6 
  52        52   983     380.8 
  53        53   981     381.6 
  54        54   981     395.2 
  55        55   981     388.7 
  56        56   982     364.6 
  57        57   982     374.1 
  58        58   981     378.9 
  59        59   981     402.0 
  60        60   980     402.4 
  61        61   983     398.4 
  62        62   981     386.3 
  63        63   981     384.3 
  64        64   981     401.0 
  65        65   982     390.4 
  66        66   982     387.0 
  67        67   981     385.7 
  68        68   981     379.5 
  69        69   981     407.4 
  70        70   983     404.2 
  71        71   980     373.8 
  72        72   981     396.9 
  73        73   981     414.9 
  74        74   982     376.1 
  75        75   981     400.3 
  76        76   980     375.2 
  77        77   980     390.8 
  78        78   982     389.3 
  79        79   982     376.8 
  80        80   980     393.2 
  81        81   981     382.6 
  82        82   980     395.9 
  83        83   982     362.9 
  84        84   980     404.1 
  85        85   980     341.2 
  86        86   980     370.4 
  87        87   982     381.2 
  88        88   981     370.7 
  89        89   980     395.2 
  90        90   981     380.9 
  91        91   981     395.2 
  92        92   982     378.1 
  93        93   980     387.8 
  94        94   980     383.3 
  95        95   980     379.6 
  96        96   982     389.7 
  97        97   981     361.5 
  98        98   980     413.9 
  99        99   980     386.1 
 100       100   980     401.0 
 101       101   981     390.8 
 102       102   980     400.7 
 103       103   980     362.6 
 104       104   980     372.4 
 105       105   982     374.7 
 106       106   980     375.9 
 107       107   980     357.1 
 108       108   980     372.1 
 109       109   981     382.3 
 110       110   980     413.9 
 111       111   980     349.7 
 112       112   980     351.0 
 113       113   980     394.6 
 114       114   981     404.3 
 115       115   980     361.2 
 116       116   980     338.4 
 117       117   980     384.0 
 118       118   980     356.5 
 119       119   980     399.0 
 120       120   979     372.5 
 121       121   980     396.3 
 122       122   980     378.9 
 123       123   981     396.5 
 124       124   979     361.6 
 125       125   980     390.1 
 126       126   980     373.5 
 127       127   981     373.8 
 128       128   980     372.4 
 129       129   979     369.1 
 130       130   979     412.3 
 131       131   980     380.6 
 132       132   980     362.9 
 133       133   979     384.4 
 134       134   979     383.7 
 135       135   979     377.9 
 136       136   980     383.7 
 137       137   979     363.3 
 138       138   979     396.0 
 139       139   979     363.6 
 140       140   980     412.2 
 141       141   980     337.4 
 142       142   978     397.1 
 143       143   980     380.3 
 144       144   979     424.6 
 145       145   980     364.3 
 146       146   978     383.1 
 147       147   979     363.0 
 148       148   979     397.3 
 149       149   979     380.0 
 150       150   979     380.0 
 151       210  1000     318.7 
 152       270   997     346.4 
 153       330  1000     304.0 
 154       390   996     332.0 
 155       450   996     330.7 
 156       510   996     335.3 
 157       570   994     326.3 
 158       630   998     354.4 
 159       810   983     315.4 
 160       990   980     310.9 
 161      1170   985     383.8 
 162      1350   986     348.9 
 163      1530   981     408.4 
 164      2070   980     316.0 
 165      2691   973     346.0 
 166      3405   978     386.2 
 167      4226   978     311.9 
 168      5170   976     352.1 
 169      6256   975     374.0 
 170      7505   974     339.5 
 171      8941   977     342.2 
 172     10592   975     419.8 
 173     12491   973     349.8 
 174     14675   979     351.0 
 175     17187   975     274.5 
 176     20076   974     240.6 
 177     23398   977     343.9 
 178     27218   979     252.0 
 179     31611   980     212.6 
 180     36663   980     246.3 
 181     42473   977     289.3 
 182     49155   978     265.5 
 183     56839   980     196.6 
 184     65676   977     231.3 
 185     75839   981     231.3 
