PC/104 FIRe Fluorometer 2.0.0
 5/14/2025     37287
LED Color:           blue
Gain:               2000
Sample Delay (msec):    10
Number Samples:   3
STF (usec):      150
STRP (#samples):       35
STRI (usec):       60
MTF (ms):        0
MTF (#samples):     0
MTRP (#samples):        0
MTRI (usec):      100
PQLen:     4
Ambient Light Source Power: Off
PAR (uMol/m^2/s):900.00
Comment:
Depth(m):   2.2
Temperature(C):  34.4
Battery(V):  16.49

         Time    EX   Fl-Yield 
DATA--------------------------
   0         0     0       0.0 
   1         1   156    -356.8 
   2         2   817     104.9 
   3         3   953     176.3 
   4         4   969     246.3 
   5         5   972     209.9 
   6         6   973     162.7 
   7         7   973     196.0 
   8         8   977     205.4 
   9         9   974     175.6 
  10        10   975     196.6 
  11        11   976     197.1 
  12        12   977     230.3 
  13        13   977     238.1 
  14        14   977     148.8 
  15        15   977     165.5 
  16        16   978     236.2 
  17        17   980     231.3 
  18        18   977     199.9 
  19        19   978     183.4 
  20        20   979     242.8 
  21        21   980     237.1 
  22        22   979     189.6 
  23        23   979     176.4 
  24        24   979     218.2 
  25        25   980     292.5 
  26        26   980     282.0 
  27        27   978     172.8 
  28        28   980     135.7 
  29        29   980     250.3 
  30        30   980     196.3 
  31        31   980     152.0 
  32        32   980     149.3 
  33        33   980     226.9 
  34        34   981     258.6 
  35        35   981     236.2 
  36        36   980     209.9 
  37        37   981     292.2 
  38        38   980     268.0 
  39        39   981     248.7 
  40        40   980     216.7 
  41        41   981     270.5 
  42        42   980     243.5 
  43        43   982     292.3 
  44        44   981     228.7 
  45        45   980     310.5 
  46        46   981     296.0 
  47        47   982     302.8 
  48        48   982     231.8 
  49        49   981     308.2 
  50        50   981     354.4 
  51        51   980     355.4 
  52        52   983     235.0 
  53        53   981     289.8 
  54        54   981     323.1 
  55        55   981     341.8 
  56        56   982     261.7 
  57        57   982     211.1 
  58        58   981     323.1 
  59        59   981     335.4 
  60        60   980     283.3 
  61        61   983     287.2 
  62        62   981     302.8 
  63        63   981     343.5 
  64        64   981     280.3 
  65        65   982     258.7 
  66        66   982     246.1 
  67        67   981     352.4 
  68        68   981     331.6 
  69        69   981     312.9 
  70        70   983     268.9 
  71        71   980     303.4 
  72        72   981     343.5 
  73        73   981     309.9 
  74        74   982     224.7 
  75        75   981     280.7 
  76        76   980     284.7 
  77        77   980     232.3 
  78        78   982     203.3 
  79        79   982     279.7 
  80        80   980     296.3 
  81        81   981     253.8 
  82        82   980     312.2 
  83        83   982     317.7 
  84        84   980     289.8 
  85        85   980     299.7 
  86        86   980     258.8 
  87        87   982     293.6 
  88        88   981     311.9 
  89        89   980     346.6 
  90        90   981     256.9 
  91        91   981     255.2 
  92        92   982     309.6 
  93        93   980     318.0 
  94        94   980     252.7 
  95        95   980     268.7 
  96        96   982     403.9 
  97        97   981     327.9 
  98        98   980     273.1 
  99        99   980     270.1 
 100       100   980     259.5 
 101       101   981     363.9 
 102       102   980     253.7 
 103       103   980     204.1 
 104       104   980     219.4 
 105       105   982     311.9 
 106       106   980     337.1 
 107       107   980     255.4 
 108       108   980     234.7 
 109       109   981     280.7 
 110       110   980     270.4 
 111       111   980     196.9 
 112       112   980     242.2 
 113       113   980     302.0 
 114       114   981     340.8 
 115       115   980     233.7 
 116       116   980     204.1 
 117       117   980     240.1 
 118       118   980     328.9 
 119       119   980     276.5 
 120       120   979     154.9 
 121       121   980     271.4 
 122       122   980     317.0 
 123       123   981     251.4 
 124       124   979     234.6 
 125       125   980     264.6 
 126       126   980     304.8 
 127       127   981     283.0 
 128       128   980     237.4 
 129       129   979     244.1 
 130       130   979     278.9 
 131       131   980     310.2 
 132       132   980     287.8 
 133       133   979     184.5 
 134       134   979     305.8 
 135       135   979     314.3 
 136       136   980     302.7 
 137       137   979     216.2 
 138       138   979     303.4 
 139       139   979     264.6 
 140       140   980     326.5 
 141       141   980     181.3 
 142       142   978     235.9 
 143       143   980     315.6 
 144       144   979     295.2 
 145       145   980     198.6 
 146       146   978     206.5 
 147       147   979     290.8 
 148       148   979     284.0 
 149       149   979     235.6 
 150       150   979     235.6 
 151       210  1000     428.7 
 152       270   997     271.5 
 153       330  1000     129.7 
 154       390   996     250.0 
 155       450   996     298.2 
 156       510   996     397.6 
 157       570   994     254.2 
 158       630   998     206.7 
 159       810   983     270.9 
 160       990   980     190.8 
 161      1170   985     400.7 
 162      1350   986     207.6 
 163      1530   981     388.0 
 164      2070   980     252.7 
 165      2691   973     178.5 
 166      3405   978     292.1 
 167      4226   978     271.6 
 168      5170   976     293.4 
 169      6256   975     231.8 
 170      7505   974     429.8 
 171      8941   977     263.4 
 172     10592   975     100.5 
 173     12491   973     309.7 
 174     14675   979     209.4 
 175     17187   975     205.5 
 176     20076   974     140.0 
 177     23398   977     204.4 
 178     27218   979     300.3 
 179     31611   980     326.2 
 180     36663   980     272.1 
 181     42473   977     194.1 
 182     49155   978     172.1 
 183     56839   980     185.7 
 184     65676   977     261.0 
 185     75839   981     261.0 
   1         1   156     256.4 
   2         2   817     253.0 
   3         3   953     230.8 
   4         4   969     263.2 
   5         5   972     238.7 
   6         6   973     280.9 
   7         7   973     206.6 
   8         8   977     346.6 
   9         9   974     298.8 
  10        10   975     394.9 
  11        11   976     438.2 
  12        12   977     481.4 
  13        13   977     494.0 
  14        14   977     489.9 
  15        15   977     473.2 
  16        16   978     512.6 
  17        17   980     489.1 
  18        18   977     494.0 
  19        19   978     423.3 
  20        20   979     407.6 
  21        21   980     406.8 
  22        22   979     389.2 
  23        23   979     338.4 
  24        24   979     336.4 
  25        25   980     353.4 
  26        26   980     292.5 
  27        27   978     287.3 
  28        28   980     277.9 
  29        29   980     357.8 
  30        30   980     297.3 
  31        31   980     274.8 
  32        32   980     285.4 
  33        33   980     330.6 
  34        34   981     328.9 
  35        35   981     350.3 
  36        36   980     302.4 
  37        37   981     382.3 
  38        38   980     294.2 
  39        39   981     315.3 
  40        40   980     289.5 
  41        41   981     379.2 
  42        42   980     344.9 
  43        43   982     347.6 
  44        44   981     346.6 
  45        45   980     338.4 
  46        46   981     372.1 
  47        47   982     280.0 
  48        48   982     387.0 
  49        49   981     328.9 
  50        50   981     373.8 
  51        51   980     371.4 
  52        52   983     392.7 
  53        53   981     328.2 
  54        54   981     402.3 
  55        55   981     351.3 
  56        56   982     385.3 
  57        57   982     396.1 
  58        58   981     408.4 
  59        59   981     361.2 
  60        60   980     340.8 
  61        61   983     363.5 
  62        62   981     365.6 
  63        63   981     411.1 
  64        64   981     393.1 
  65        65   982     380.9 
  66        66   982     319.8 
  67        67   981     391.1 
  68        68   981     386.3 
  69        69   981     309.9 
  70        70   983     323.2 
  71        71   980     356.5 
  72        72   981     358.1 
  73        73   981     364.9 
  74        74   982     352.3 
  75        75   981     357.8 
  76        76   980     378.6 
  77        77   980     340.5 
  78        78   982     364.2 
  79        79   982     385.3 
  80        80   980     394.2 
  81        81   981     339.1 
  82        82   980     333.3 
  83        83   982     329.9 
  84        84   980     396.6 
  85        85   980     328.2 
  86        86   980     319.7 
  87        87   982     331.3 
  88        88   981     371.0 
  89        89   980     385.0 
  90        90   981     333.7 
  91        91   981     320.1 
  92        92   982     328.2 
  93        93   980     372.1 
  94        94   980     336.1 
  95        95   980     270.7 
  96        96   982     335.7 
  97        97   981     337.1 
  98        98   980     274.5 
  99        99   980     365.0 
 100       100   980     300.0 
 101       101   981     378.9 
 102       102   980     311.2 
 103       103   980     291.5 
 104       104   980     280.6 
 105       105   982     305.2 
 106       106   980     319.0 
 107       107   980     288.4 
 108       108   980     270.7 
 109       109   981     327.9 
 110       110   980     299.3 
 111       111   980     273.1 
 112       112   980     234.7 
 113       113   980     256.5 
 114       114   981     338.1 
 115       115   980     277.2 
 116       116   980     288.8 
 117       117   980     272.4 
 118       118   980     368.4 
 119       119   980     269.7 
 120       120   979     313.6 
 121       121   980     277.6 
 122       122   980     355.8 
 123       123   981     334.4 
 124       124   979     280.2 
 125       125   980     345.9 
 126       126   980     304.1 
 127       127   981     395.9 
 128       128   980     267.3 
 129       129   979     336.7 
 130       130   979     313.9 
 131       131   980     371.4 
 132       132   980     308.2 
 133       133   979     283.3 
 134       134   979     301.7 
 135       135   979     359.2 
 136       136   980     337.1 
 137       137   979     314.6 
 138       138   979     312.6 
 139       139   979     303.4 
 140       140   980     297.6 
 141       141   980     301.4 
 142       142   978     329.2 
 143       143   980     347.3 
 144       144   979     362.3 
 145       145   980     313.6 
 146       146   978     296.5 
 147       147   979     366.7 
 148       148   979     356.8 
 149       149   979     338.8 
 150       150   979     338.8 
 151       210  1000     288.3 
 152       270   997     311.9 
 153       330  1000     184.7 
 154       390   996     163.3 
 155       450   996     213.5 
 156       510   996     254.0 
 157       570   994     222.0 
 158       630   998     345.0 
 159       810   983     206.2 
 160       990   980     226.5 
 161      1170   985     328.9 
 162      1350   986     325.2 
 163      1530   981     311.9 
 164      2070   980     218.0 
 165      2691   973     185.0 
 166      3405   978     364.7 
 167      4226   978     340.8 
 168      5170   976     173.2 
 169      6256   975     307.7 
 170      7505   974     229.3 
 171      8941   977     335.4 
 172     10592   975     226.3 
 173     12491   973     248.7 
 174     14675   979     280.6 
 175     17187   975     269.7 
 176     20076   974     268.0 
 177     23398   977     316.3 
 178     27218   979     242.4 
 179     31611   980     279.9 
 180     36663   980     168.4 
 181     42473   977     337.1 
 182     49155   978     175.9 
 183     56839   980     273.8 
 184     65676   977     244.6 
 185     75839   981     244.6 
