PC/104 FIRe Fluorometer 2.0.0
 5/14/2025     37233
LED Color:           blue
Gain:               1300
Sample Delay (msec):    10
Number Samples:   3
STF (usec):      150
STRP (#samples):       35
STRI (usec):       60
MTF (ms):        0
MTF (#samples):     0
MTRP (#samples):        0
MTRI (usec):      100
PQLen:     4
Ambient Light Source Power: Off
PAR (uMol/m^2/s):813.35
Comment:
Depth(m):   2.2
Temperature(C):  34.2
Battery(V):  16.51

         Time    EX   Fl-Yield 
DATA--------------------------
   0         0     0       0.0 
   1         1   156     156.0 
   2         2   817     218.7 
   3         3   953     231.9 
   4         4   969     242.9 
   5         5   972     228.4 
   6         6   973     236.0 
   7         7   973     228.8 
   8         8   977     248.4 
   9         9   974     244.0 
  10        10   975     240.7 
  11        11   976     237.0 
  12        12   977     251.5 
  13        13   977     266.1 
  14        14   977     257.3 
  15        15   977     253.8 
  16        16   978     270.6 
  17        17   980     269.7 
  18        18   977     260.0 
  19        19   978     278.8 
  20        20   979     274.1 
  21        21   980     287.8 
  22        22   979     274.8 
  23        23   979     264.2 
  24        24   979     275.8 
  25        25   980     277.6 
  26        26   980     281.6 
  27        27   978     274.7 
  28        28   980     274.8 
  29        29   980     270.4 
  30        30   980     292.9 
  31        31   980     287.4 
  32        32   980     289.1 
  33        33   980     291.8 
  34        34   981     292.9 
  35        35   981     299.4 
  36        36   980     287.1 
  37        37   981     296.0 
  38        38   980     294.9 
  39        39   981     293.2 
  40        40   980     291.5 
  41        41   981     285.1 
  42        42   980     311.9 
  43        43   982     301.4 
  44        44   981     300.0 
  45        45   980     302.0 
  46        46   981     304.1 
  47        47   982     290.6 
  48        48   982     303.5 
  49        49   981     296.6 
  50        50   981     298.7 
  51        51   980     303.7 
  52        52   983     298.7 
  53        53   981     299.7 
  54        54   981     297.0 
  55        55   981     315.7 
  56        56   982     312.6 
  57        57   982     294.6 
  58        58   981     295.3 
  59        59   981     305.8 
  60        60   980     313.3 
  61        61   983     308.6 
  62        62   981     306.5 
  63        63   981     307.2 
  64        64   981     318.4 
  65        65   982     312.3 
  66        66   982     318.4 
  67        67   981     319.4 
  68        68   981     322.8 
  69        69   981     325.5 
  70        70   983     314.7 
  71        71   980     314.6 
  72        72   981     318.7 
  73        73   981     325.9 
  74        74   982     306.5 
  75        75   981     314.0 
  76        76   980     329.6 
  77        77   980     321.8 
  78        78   982     323.5 
  79        79   982     318.7 
  80        80   980     310.9 
  81        81   981     329.9 
  82        82   980     314.6 
  83        83   982     329.3 
  84        84   980     323.8 
  85        85   980     331.3 
  86        86   980     320.4 
  87        87   982     327.6 
  88        88   981     319.4 
  89        89   980     329.9 
  90        90   981     319.4 
  91        91   981     324.8 
  92        92   982     323.5 
  93        93   980     329.6 
  94        94   980     320.4 
  95        95   980     325.9 
  96        96   982     305.2 
  97        97   981     318.4 
  98        98   980     324.5 
  99        99   980     312.6 
 100       100   980     316.7 
 101       101   981     318.7 
 102       102   980     329.3 
 103       103   980     306.5 
 104       104   980     306.8 
 105       105   982     313.0 
 106       106   980     318.4 
 107       107   980     320.7 
 108       108   980     312.6 
 109       109   981     302.4 
 110       110   980     313.9 
 111       111   980     327.2 
 112       112   980     314.6 
 113       113   980     322.1 
 114       114   981     328.9 
 115       115   980     324.8 
 116       116   980     311.2 
 117       117   980     322.8 
 118       118   980     323.5 
 119       119   980     334.4 
 120       120   979     323.5 
 121       121   980     314.3 
 122       122   980     310.2 
 123       123   981     320.8 
 124       124   979     323.1 
 125       125   980     309.9 
 126       126   980     309.9 
 127       127   981     307.5 
 128       128   980     312.9 
 129       129   979     308.1 
 130       130   979     306.4 
 131       131   980     318.7 
 132       132   980     308.8 
 133       133   979     307.1 
 134       134   979     314.3 
 135       135   979     312.9 
 136       136   980     307.1 
 137       137   979     312.9 
 138       138   979     310.2 
 139       139   979     315.3 
 140       140   980     310.5 
 141       141   980     316.3 
 142       142   978     304.7 
 143       143   980     314.6 
 144       144   979     311.5 
 145       145   980     313.3 
 146       146   978     311.9 
 147       147   979     321.1 
 148       148   979     324.1 
 149       149   979     312.2 
 150       150   979     312.2 
 151       210  1000     342.7 
 152       270   997     303.9 
 153       330  1000     271.7 
 154       390   996     287.1 
 155       450   996     289.2 
 156       510   996     293.8 
 157       570   994     283.4 
 158       630   998     268.2 
 159       810   983     261.1 
 160       990   980     268.7 
 161      1170   985     291.7 
 162      1350   986     235.0 
 163      1530   981     271.2 
 164      2070   980     241.2 
 165      2691   973     232.6 
 166      3405   978     253.6 
 167      4226   978     228.0 
 168      5170   976     213.8 
 169      6256   975     205.5 
 170      7505   974     223.8 
 171      8941   977     221.1 
 172     10592   975     234.5 
 173     12491   973     204.2 
 174     14675   979     221.7 
 175     17187   975     194.9 
 176     20076   974     212.2 
 177     23398   977     236.8 
 178     27218   979     234.3 
 179     31611   980     169.7 
 180     36663   980     246.6 
 181     42473   977     181.2 
 182     49155   978     241.6 
 183     56839   980     219.4 
 184     65676   977     223.5 
 185     75839   981     223.5 
   1         1   156     215.8 
   2         2   817     294.6 
   3         3   953     288.6 
   4         4   969     294.8 
   5         5   972     283.3 
   6         6   973     291.5 
   7         7   973     286.1 
   8         8   977     307.1 
   9         9   974     312.5 
  10        10   975     315.9 
  11        11   976     318.3 
  12        12   977     336.1 
  13        13   977     340.5 
  14        14   977     340.5 
  15        15   977     337.1 
  16        16   978     342.2 
  17        17   980     341.2 
  18        18   977     344.3 
  19        19   978     332.0 
  20        20   979     326.9 
  21        21   980     315.6 
  22        22   979     320.1 
  23        23   979     317.7 
  24        24   979     297.6 
  25        25   980     308.5 
  26        26   980     317.3 
  27        27   978     307.1 
  28        28   980     296.9 
  29        29   980     297.6 
  30        30   980     299.0 
  31        31   980     308.2 
  32        32   980     300.7 
  33        33   980     310.9 
  34        34   981     308.5 
  35        35   981     296.6 
  36        36   980     294.2 
  37        37   981     303.8 
  38        38   980     305.8 
  39        39   981     302.4 
  40        40   980     296.6 
  41        41   981     306.5 
  42        42   980     306.8 
  43        43   982     298.0 
  44        44   981     309.2 
  45        45   980     306.5 
  46        46   981     309.9 
  47        47   982     299.7 
  48        48   982     301.1 
  49        49   981     305.8 
  50        50   981     305.5 
  51        51   980     308.8 
  52        52   983     316.0 
  53        53   981     304.5 
  54        54   981     305.1 
  55        55   981     316.7 
  56        56   982     318.7 
  57        57   982     312.6 
  58        58   981     311.6 
  59        59   981     309.2 
  60        60   980     323.1 
  61        61   983     304.2 
  62        62   981     322.8 
  63        63   981     314.3 
  64        64   981     319.4 
  65        65   982     318.1 
  66        66   982     314.7 
  67        67   981     317.4 
  68        68   981     333.7 
  69        69   981     319.4 
  70        70   983     313.7 
  71        71   980     305.4 
  72        72   981     323.8 
  73        73   981     322.5 
  74        74   982     325.5 
  75        75   981     306.5 
  76        76   980     318.7 
  77        77   980     310.9 
  78        78   982     318.4 
  79        79   982     306.2 
  80        80   980     332.0 
  81        81   981     329.3 
  82        82   980     305.8 
  83        83   982     320.1 
  84        84   980     324.8 
  85        85   980     329.6 
  86        86   980     323.5 
  87        87   982     322.5 
  88        88   981     321.8 
  89        89   980     333.0 
  90        90   981     331.6 
  91        91   981     325.5 
  92        92   982     319.1 
  93        93   980     341.5 
  94        94   980     322.8 
  95        95   980     327.9 
  96        96   982     321.5 
  97        97   981     328.6 
  98        98   980     332.3 
  99        99   980     318.7 
 100       100   980     331.0 
 101       101   981     324.5 
 102       102   980     329.6 
 103       103   980     329.3 
 104       104   980     327.2 
 105       105   982     331.3 
 106       106   980     322.1 
 107       107   980     329.6 
 108       108   980     334.0 
 109       109   981     329.6 
 110       110   980     323.8 
 111       111   980     322.1 
 112       112   980     323.8 
 113       113   980     325.2 
 114       114   981     324.2 
 115       115   980     318.7 
 116       116   980     319.0 
 117       117   980     312.2 
 118       118   980     323.5 
 119       119   980     318.7 
 120       120   979     326.5 
 121       121   980     313.9 
 122       122   980     317.0 
 123       123   981     330.6 
 124       124   979     314.9 
 125       125   980     325.5 
 126       126   980     319.4 
 127       127   981     313.6 
 128       128   980     327.2 
 129       129   979     319.7 
 130       130   979     319.4 
 131       131   980     323.1 
 132       132   980     321.1 
 133       133   979     314.3 
 134       134   979     308.8 
 135       135   979     323.8 
 136       136   980     322.8 
 137       137   979     316.6 
 138       138   979     321.1 
 139       139   979     308.5 
 140       140   980     321.1 
 141       141   980     334.0 
 142       142   978     306.4 
 143       143   980     301.7 
 144       144   979     311.9 
 145       145   980     317.3 
 146       146   978     308.5 
 147       147   979     301.3 
 148       148   979     319.7 
 149       149   979     314.3 
 150       150   979     314.3 
 151       210  1000     324.0 
 152       270   997     314.9 
 153       330  1000     324.0 
 154       390   996     292.5 
 155       450   996     300.5 
 156       510   996     276.4 
 157       570   994     295.1 
 158       630   998     300.3 
 159       810   983     287.2 
 160       990   980     291.2 
 161      1170   985     297.8 
 162      1350   986     302.6 
 163      1530   981     264.0 
 164      2070   980     297.6 
 165      2691   973     297.0 
 166      3405   978     286.3 
 167      4226   978     295.8 
 168      5170   976     286.9 
 169      6256   975     264.3 
 170      7505   974     252.9 
 171      8941   977     255.2 
 172     10592   975     272.1 
 173     12491   973     276.1 
 174     14675   979     264.9 
 175     17187   975     251.6 
 176     20076   974     239.6 
 177     23398   977     226.9 
 178     27218   979     259.1 
 179     31611   980     245.9 
 180     36663   980     256.8 
 181     42473   977     221.8 
 182     49155   978     260.4 
 183     56839   980     246.6 
 184     65676   977     230.3 
 185     75839   981     230.3 
