PC/104 FIRe Fluorometer 2.0.0
 5/14/2025     39173
LED Color:           blue
Gain:               1600
Sample Delay (msec):    10
Number Samples:   3
STF (usec):      150
STRP (#samples):       35
STRI (usec):       60
MTF (ms):        0
MTF (#samples):     0
MTRP (#samples):        0
MTRI (usec):      100
PQLen:     4
Ambient Light Source Power: Off
PAR (uMol/m^2/s):763.52
Comment:
Depth(m):   1.9
Temperature(C):  34.8
Battery(V):  16.50

         Time    EX   Fl-Yield 
DATA--------------------------
   0         0     0       0.0 
   1         1   156     299.1 
   2         2   817     310.5 
   3         3   953     317.6 
   4         4   969     319.9 
   5         5   972     323.4 
   6         6   973     337.4 
   7         7   973     359.7 
   8         8   977     328.2 
   9         9   974     326.1 
  10        10   975     362.1 
  11        11   976     378.4 
  12        12   977     363.0 
  13        13   977     360.3 
  14        14   977     343.6 
  15        15   977     375.0 
  16        16   978     384.1 
  17        17   980     339.8 
  18        18   977     353.1 
  19        19   978     382.1 
  20        20   979     388.5 
  21        21   980     379.9 
  22        22   979     369.1 
  23        23   979     363.0 
  24        24   979     421.9 
  25        25   980     397.3 
  26        26   980     398.3 
  27        27   978     401.2 
  28        28   980     411.6 
  29        29   980     408.5 
  30        30   980     426.5 
  31        31   980     409.9 
  32        32   980     416.3 
  33        33   980     426.9 
  34        34   981     388.7 
  35        35   981     430.9 
  36        36   980     432.0 
  37        37   981     428.8 
  38        38   980     406.5 
  39        39   981     432.2 
  40        40   980     444.2 
  41        41   981     472.0 
  42        42   980     413.9 
  43        43   982     412.4 
  44        44   981     439.3 
  45        45   980     439.5 
  46        46   981     439.7 
  47        47   982     434.8 
  48        48   982     442.6 
  49        49   981     457.7 
  50        50   981     433.2 
  51        51   980     418.7 
  52        52   983     453.0 
  53        53   981     438.3 
  54        54   981     434.6 
  55        55   981     433.6 
  56        56   982     458.2 
  57        57   982     440.3 
  58        58   981     466.9 
  59        59   981     431.2 
  60        60   980     474.8 
  61        61   983     444.9 
  62        62   981     491.3 
  63        63   981     458.4 
  64        64   981     445.8 
  65        65   982     457.6 
  66        66   982     473.5 
  67        67   981     472.0 
  68        68   981     422.4 
  69        69   981     451.9 
  70        70   983     464.2 
  71        71   980     468.4 
  72        72   981     438.3 
  73        73   981     452.3 
  74        74   982     445.3 
  75        75   981     485.6 
  76        76   980     445.6 
  77        77   980     435.4 
  78        78   982     455.5 
  79        79   982     451.5 
  80        80   980     445.6 
  81        81   981     448.5 
  82        82   980     458.2 
  83        83   982     446.7 
  84        84   980     475.5 
  85        85   980     423.1 
  86        86   980     439.8 
  87        87   982     463.7 
  88        88   981     440.0 
  89        89   980     425.9 
  90        90   981     437.3 
  91        91   981     451.9 
  92        92   982     448.4 
  93        93   980     445.6 
  94        94   980     428.2 
  95        95   980     449.7 
  96        96   982     450.4 
  97        97   981     429.8 
  98        98   980     435.7 
  99        99   980     434.0 
 100       100   980     459.9 
 101       101   981     443.8 
 102       102   980     436.7 
 103       103   980     461.2 
 104       104   980     446.3 
 105       105   982     455.2 
 106       106   980     420.4 
 107       107   980     438.8 
 108       108   980     464.3 
 109       109   981     448.5 
 110       110   980     448.6 
 111       111   980     433.0 
 112       112   980     444.2 
 113       113   980     449.0 
 114       114   981     438.7 
 115       115   980     451.4 
 116       116   980     448.3 
 117       117   980     470.4 
 118       118   980     462.9 
 119       119   980     449.3 
 120       120   979     445.4 
 121       121   980     477.6 
 122       122   980     453.1 
 123       123   981     452.3 
 124       124   979     450.1 
 125       125   980     467.0 
 126       126   980     436.4 
 127       127   981     439.7 
 128       128   980     429.6 
 129       129   979     441.9 
 130       130   979     475.3 
 131       131   980     456.1 
 132       132   980     436.1 
 133       133   979     459.3 
 134       134   979     457.3 
 135       135   979     444.0 
 136       136   980     420.1 
 137       137   979     440.2 
 138       138   979     421.9 
 139       139   979     465.1 
 140       140   980     432.3 
 141       141   980     457.8 
 142       142   978     454.3 
 143       143   980     433.7 
 144       144   979     455.2 
 145       145   980     438.1 
 146       146   978     450.2 
 147       147   979     449.1 
 148       148   979     459.3 
 149       149   979     460.3 
 150       150   979     460.3 
 151       210  1000     414.0 
 152       270   997     423.3 
 153       330  1000     399.0 
 154       390   996     393.9 
 155       450   996     452.5 
 156       510   996     387.6 
 157       570   994     381.0 
 158       630   998     368.4 
 159       810   983     386.6 
 160       990   980     397.6 
 161      1170   985     332.7 
 162      1350   986     398.2 
 163      1530   981     332.0 
 164      2070   980     390.5 
 165      2691   973     304.2 
 166      3405   978     318.7 
 167      4226   978     354.8 
 168      5170   976     343.2 
 169      6256   975     344.6 
 170      7505   974     295.3 
 171      8941   977     313.9 
 172     10592   975     296.4 
 173     12491   973     312.8 
 174     14675   979     316.0 
 175     17187   975     292.0 
 176     20076   974     321.0 
 177     23398   977     283.9 
 178     27218   979     332.7 
 179     31611   980     339.5 
 180     36663   980     308.5 
 181     42473   977     293.1 
 182     49155   978     351.7 
 183     56839   980     323.1 
 184     65676   977     245.3 
 185     75839   981     245.3 
   1         1   156     322.6 
   2         2   817     439.0 
   3         3   953     464.1 
   4         4   969     462.7 
   5         5   972     407.8 
   6         6   973     435.4 
   7         7   973     451.5 
   8         8   977     482.8 
   9         9   974     469.5 
  10        10   975     511.5 
  11        11   976     506.8 
  12        12   977     534.3 
  13        13   977     536.0 
  14        14   977     530.9 
  15        15   977     527.5 
  16        16   978     531.7 
  17        17   980     548.0 
  18        18   977     527.5 
  19        19   978     491.8 
  20        20   979     538.6 
  21        21   980     514.6 
  22        22   979     496.4 
  23        23   979     501.2 
  24        24   979     486.6 
  25        25   980     498.6 
  26        26   980     484.0 
  27        27   978     477.8 
  28        28   980     498.0 
  29        29   980     478.2 
  30        30   980     471.8 
  31        31   980     479.6 
  32        32   980     478.6 
  33        33   980     512.2 
  34        34   981     463.8 
  35        35   981     487.9 
  36        36   980     485.0 
  37        37   981     491.3 
  38        38   980     508.2 
  39        39   981     502.5 
  40        40   980     476.2 
  41        41   981     508.0 
  42        42   980     518.7 
  43        43   982     480.7 
  44        44   981     515.5 
  45        45   980     486.7 
  46        46   981     504.9 
  47        47   982     481.7 
  48        48   982     508.1 
  49        49   981     506.6 
  50        50   981     526.3 
  51        51   980     511.2 
  52        52   983     505.9 
  53        53   981     503.2 
  54        54   981     516.8 
  55        55   981     511.4 
  56        56   982     504.1 
  57        57   982     499.7 
  58        58   981     505.6 
  59        59   981     493.0 
  60        60   980     497.6 
  61        61   983     492.4 
  62        62   981     513.8 
  63        63   981     506.6 
  64        64   981     487.9 
  65        65   982     489.5 
  66        66   982     488.5 
  67        67   981     528.0 
  68        68   981     502.9 
  69        69   981     498.1 
  70        70   983     486.3 
  71        71   980     507.1 
  72        72   981     494.4 
  73        73   981     485.2 
  74        74   982     485.1 
  75        75   981     519.2 
  76        76   980     470.1 
  77        77   980     499.3 
  78        78   982     488.8 
  79        79   982     492.5 
  80        80   980     508.2 
  81        81   981     489.3 
  82        82   980     475.5 
  83        83   982     496.3 
  84        84   980     477.6 
  85        85   980     463.9 
  86        86   980     476.5 
  87        87   982     468.4 
  88        88   981     490.7 
  89        89   980     474.5 
  90        90   981     481.5 
  91        91   981     485.9 
  92        92   982     490.8 
  93        93   980     501.7 
  94        94   980     465.0 
  95        95   980     491.5 
  96        96   982     487.4 
  97        97   981     517.8 
  98        98   980     471.1 
  99        99   980     465.0 
 100       100   980     465.6 
 101       101   981     491.0 
 102       102   980     476.5 
 103       103   980     494.6 
 104       104   980     458.2 
 105       105   982     495.9 
 106       106   980     524.1 
 107       107   980     467.7 
 108       108   980     461.9 
 109       109   981     500.2 
 110       110   980     476.9 
 111       111   980     473.5 
 112       112   980     449.3 
 113       113   980     486.7 
 114       114   981     481.8 
 115       115   980     484.4 
 116       116   980     482.7 
 117       117   980     469.0 
 118       118   980     469.0 
 119       119   980     474.5 
 120       120   979     453.2 
 121       121   980     471.1 
 122       122   980     505.1 
 123       123   981     470.6 
 124       124   979     462.7 
 125       125   980     469.7 
 126       126   980     496.6 
 127       127   981     477.7 
 128       128   980     482.3 
 129       129   979     459.0 
 130       130   979     496.8 
 131       131   980     490.5 
 132       132   980     490.5 
 133       133   979     477.0 
 134       134   979     481.1 
 135       135   979     486.9 
 136       136   980     472.8 
 137       137   979     495.7 
 138       138   979     485.5 
 139       139   979     477.4 
 140       140   980     487.1 
 141       141   980     479.6 
 142       142   978     461.5 
 143       143   980     510.5 
 144       144   979     491.7 
 145       145   980     503.1 
 146       146   978     467.6 
 147       147   979     513.4 
 148       148   979     489.6 
 149       149   979     504.9 
 150       150   979     504.9 
 151       210  1000     412.0 
 152       270   997     484.5 
 153       330  1000     416.0 
 154       390   996     433.7 
 155       450   996     434.7 
 156       510   996     455.5 
 157       570   994     443.3 
 158       630   998     486.3 
 159       810   983     372.0 
 160       990   980     482.7 
 161      1170   985     452.5 
 162      1350   986     385.7 
 163      1530   981     481.1 
 164      2070   980     447.6 
 165      2691   973     433.0 
 166      3405   978     374.2 
 167      4226   978     427.1 
 168      5170   976     403.0 
 169      6256   975     400.7 
 170      7505   974     419.6 
 171      8941   977     353.5 
 172     10592   975     393.5 
 173     12491   973     366.2 
 174     14675   979     421.2 
 175     17187   975     399.3 
 176     20076   974     358.0 
 177     23398   977     315.3 
 178     27218   979     395.6 
 179     31611   980     343.2 
 180     36663   980     355.1 
 181     42473   977     354.8 
 182     49155   978     352.8 
 183     56839   980     321.1 
 184     65676   977     323.8 
 185     75839   981     323.8 
