PC/104 FIRe Fluorometer 2.0.0
 5/14/2025     39186
LED Color:           blue
Gain:               1400
Sample Delay (msec):    10
Number Samples:   3
STF (usec):      150
STRP (#samples):       35
STRI (usec):       60
MTF (ms):        0
MTF (#samples):     0
MTRP (#samples):        0
MTRI (usec):      100
PQLen:     4
Ambient Light Source Power: Off
PAR (uMol/m^2/s):855.86
Comment:
Depth(m):   2.0
Temperature(C):  34.9
Battery(V):  16.48

         Time    EX   Fl-Yield 
DATA--------------------------
   0         0     0       0.0 
   1         1   156      98.3 
   2         2   817     283.1 
   3         3   953     275.6 
   4         4   969     280.0 
   5         5   972     271.6 
   6         6   973     289.5 
   7         7   973     291.9 
   8         8   977     292.1 
   9         9   974     289.9 
  10        10   975     301.5 
  11        11   976     309.8 
  12        12   977     304.0 
  13        13   977     295.5 
  14        14   977     313.2 
  15        15   977     318.7 
  16        16   978     331.6 
  17        17   980     315.0 
  18        18   977     333.3 
  19        19   978     334.7 
  20        20   979     341.5 
  21        21   980     341.8 
  22        22   979     334.7 
  23        23   979     356.5 
  24        24   979     347.6 
  25        25   980     343.5 
  26        26   980     323.5 
  27        27   978     351.4 
  28        28   980     359.9 
  29        29   980     367.7 
  30        30   980     346.9 
  31        31   980     357.1 
  32        32   980     387.4 
  33        33   980     377.9 
  34        34   981     367.7 
  35        35   981     356.4 
  36        36   980     366.3 
  37        37   981     385.3 
  38        38   980     382.7 
  39        39   981     367.7 
  40        40   980     377.2 
  41        41   981     387.0 
  42        42   980     380.3 
  43        43   982     385.9 
  44        44   981     381.6 
  45        45   980     394.2 
  46        46   981     390.8 
  47        47   982     389.3 
  48        48   982     384.9 
  49        49   981     395.5 
  50        50   981     399.9 
  51        51   980     390.1 
  52        52   983     385.2 
  53        53   981     413.2 
  54        54   981     401.6 
  55        55   981     393.1 
  56        56   982     396.1 
  57        57   982     389.7 
  58        58   981     405.0 
  59        59   981     394.2 
  60        60   980     392.5 
  61        61   983     395.0 
  62        62   981     411.1 
  63        63   981     398.9 
  64        64   981     405.4 
  65        65   982     391.4 
  66        66   982     394.1 
  67        67   981     378.9 
  68        68   981     394.5 
  69        69   981     394.8 
  70        70   983     407.3 
  71        71   980     403.4 
  72        72   981     390.4 
  73        73   981     381.9 
  74        74   982     398.8 
  75        75   981     394.8 
  76        76   980     408.5 
  77        77   980     394.2 
  78        78   982     392.1 
  79        79   982     403.3 
  80        80   980     402.0 
  81        81   981     405.7 
  82        82   980     404.8 
  83        83   982     402.2 
  84        84   980     411.9 
  85        85   980     394.2 
  86        86   980     393.9 
  87        87   982     407.0 
  88        88   981     405.7 
  89        89   980     379.3 
  90        90   981     377.5 
  91        91   981     398.9 
  92        92   982     408.4 
  93        93   980     386.4 
  94        94   980     372.4 
  95        95   980     393.5 
  96        96   982     393.8 
  97        97   981     400.6 
  98        98   980     384.0 
  99        99   980     380.6 
 100       100   980     385.7 
 101       101   981     393.1 
 102       102   980     381.3 
 103       103   980     399.3 
 104       104   980     389.1 
 105       105   982     382.9 
 106       106   980     373.1 
 107       107   980     377.2 
 108       108   980     396.3 
 109       109   981     391.4 
 110       110   980     398.3 
 111       111   980     384.7 
 112       112   980     379.6 
 113       113   980     389.1 
 114       114   981     381.9 
 115       115   980     383.7 
 116       116   980     393.5 
 117       117   980     384.4 
 118       118   980     380.3 
 119       119   980     370.7 
 120       120   979     388.2 
 121       121   980     391.5 
 122       122   980     377.9 
 123       123   981     387.4 
 124       124   979     379.6 
 125       125   980     387.1 
 126       126   980     393.9 
 127       127   981     385.7 
 128       128   980     377.6 
 129       129   979     387.8 
 130       130   979     391.6 
 131       131   980     398.6 
 132       132   980     380.6 
 133       133   979     387.1 
 134       134   979     409.6 
 135       135   979     399.0 
 136       136   980     390.5 
 137       137   979     393.6 
 138       138   979     394.3 
 139       139   979     402.5 
 140       140   980     388.4 
 141       141   980     407.5 
 142       142   978     404.9 
 143       143   980     402.0 
 144       144   979     399.0 
 145       145   980     390.8 
 146       146   978     409.7 
 147       147   979     401.4 
 148       148   979     400.4 
 149       149   979     389.9 
 150       150   979     389.9 
 151       210  1000     337.3 
 152       270   997     355.7 
 153       330  1000     335.3 
 154       390   996     365.1 
 155       450   996     356.8 
 156       510   996     371.2 
 157       570   994     347.1 
 158       630   998     354.4 
 159       810   983     323.8 
 160       990   980     322.1 
 161      1170   985     277.8 
 162      1350   986     326.9 
 163      1530   981     310.6 
 164      2070   980     282.7 
 165      2691   973     302.2 
 166      3405   978     255.3 
 167      4226   978     326.5 
 168      5170   976     271.9 
 169      6256   975     272.5 
 170      7505   974     250.5 
 171      8941   977     278.4 
 172     10592   975     263.2 
 173     12491   973     253.5 
 174     14675   979     278.2 
 175     17187   975     271.5 
 176     20076   974     259.8 
 177     23398   977     264.4 
 178     27218   979     231.5 
 179     31611   980     278.2 
 180     36663   980     275.5 
 181     42473   977     277.7 
 182     49155   978     260.7 
 183     56839   980     242.2 
 184     65676   977     245.0 
 185     75839   981     245.0 
   1         1   156     549.1 
   2         2   817     380.7 
   3         3   953     371.5 
   4         4   969     383.9 
   5         5   972     395.4 
   6         6   973     400.5 
   7         7   973     386.8 
   8         8   977     394.1 
   9         9   974     406.2 
  10        10   975     432.1 
  11        11   976     423.8 
  12        12   977     431.9 
  13        13   977     457.2 
  14        14   977     458.2 
  15        15   977     427.8 
  16        16   978     427.1 
  17        17   980     439.5 
  18        18   977     450.4 
  19        19   978     441.7 
  20        20   979     424.6 
  21        21   980     414.3 
  22        22   979     429.3 
  23        23   979     435.5 
  24        24   979     412.3 
  25        25   980     407.1 
  26        26   980     438.8 
  27        27   978     427.4 
  28        28   980     411.2 
  29        29   980     394.2 
  30        30   980     394.9 
  31        31   980     405.8 
  32        32   980     402.0 
  33        33   980     384.4 
  34        34   981     388.4 
  35        35   981     416.6 
  36        36   980     412.2 
  37        37   981     396.2 
  38        38   980     389.8 
  39        39   981     396.2 
  40        40   980     402.4 
  41        41   981     404.0 
  42        42   980     394.9 
  43        43   982     411.4 
  44        44   981     397.6 
  45        45   980     406.1 
  46        46   981     393.5 
  47        47   982     415.8 
  48        48   982     421.2 
  49        49   981     399.6 
  50        50   981     405.0 
  51        51   980     403.1 
  52        52   983     411.7 
  53        53   981     410.1 
  54        54   981     390.8 
  55        55   981     408.1 
  56        56   982     418.2 
  57        57   982     417.9 
  58        58   981     402.3 
  59        59   981     406.0 
  60        60   980     410.9 
  61        61   983     417.4 
  62        62   981     405.4 
  63        63   981     398.9 
  64        64   981     417.9 
  65        65   982     430.8 
  66        66   982     402.9 
  67        67   981     401.0 
  68        68   981     407.1 
  69        69   981     426.1 
  70        70   983     434.0 
  71        71   980     406.8 
  72        72   981     398.6 
  73        73   981     429.8 
  74        74   982     424.0 
  75        75   981     415.9 
  76        76   980     409.2 
  77        77   980     428.2 
  78        78   982     432.8 
  79        79   982     403.6 
  80        80   980     404.8 
  81        81   981     415.2 
  82        82   980     434.0 
  83        83   982     412.8 
  84        84   980     406.1 
  85        85   980     410.9 
  86        86   980     427.2 
  87        87   982     401.2 
  88        88   981     398.6 
  89        89   980     401.7 
  90        90   981     416.2 
  91        91   981     418.6 
  92        92   982     410.7 
  93        93   980     409.5 
  94        94   980     422.4 
  95        95   980     410.9 
  96        96   982     402.6 
  97        97   981     416.2 
  98        98   980     412.6 
  99        99   980     432.3 
 100       100   980     424.8 
 101       101   981     409.4 
 102       102   980     410.2 
 103       103   980     439.5 
 104       104   980     418.7 
 105       105   982     402.9 
 106       106   980     418.7 
 107       107   980     428.9 
 108       108   980     424.8 
 109       109   981     420.0 
 110       110   980     415.3 
 111       111   980     426.2 
 112       112   980     425.2 
 113       113   980     401.4 
 114       114   981     397.9 
 115       115   980     411.6 
 116       116   980     440.1 
 117       117   980     409.9 
 118       118   980     405.8 
 119       119   980     411.2 
 120       120   979     423.6 
 121       121   980     409.9 
 122       122   980     421.1 
 123       123   981     417.6 
 124       124   979     440.9 
 125       125   980     431.6 
 126       126   980     423.1 
 127       127   981     410.1 
 128       128   980     429.6 
 129       129   979     426.6 
 130       130   979     422.9 
 131       131   980     412.2 
 132       132   980     427.6 
 133       133   979     434.5 
 134       134   979     420.2 
 135       135   979     408.9 
 136       136   980     415.3 
 137       137   979     435.1 
 138       138   979     416.4 
 139       139   979     414.7 
 140       140   980     425.2 
 141       141   980     422.8 
 142       142   978     434.6 
 143       143   980     412.9 
 144       144   979     405.5 
 145       145   980     427.2 
 146       146   978     443.4 
 147       147   979     418.1 
 148       148   979     418.8 
 149       149   979     411.3 
 150       150   979     411.3 
 151       210  1000     321.0 
 152       270   997     357.7 
 153       330  1000     388.3 
 154       390   996     408.6 
 155       450   996     414.7 
 156       510   996     391.6 
 157       570   994     382.3 
 158       630   998     386.8 
 159       810   983     436.8 
 160       990   980     390.8 
 161      1170   985     339.1 
 162      1350   986     390.8 
 163      1530   981     364.3 
 164      2070   980     342.9 
 165      2691   973     382.3 
 166      3405   978     398.1 
 167      4226   978     345.9 
 168      5170   976     351.8 
 169      6256   975     349.7 
 170      7505   974     367.2 
 171      8941   977     376.3 
 172     10592   975     379.5 
 173     12491   973     295.6 
 174     14675   979     355.8 
 175     17187   975     333.0 
 176     20076   974     347.0 
 177     23398   977     323.4 
 178     27218   979     264.2 
 179     31611   980     338.4 
 180     36663   980     349.3 
 181     42473   977     304.3 
 182     49155   978     309.8 
 183     56839   980     293.9 
 184     65676   977     268.2 
 185     75839   981     268.2 
