PC/104 FIRe Fluorometer 2.0.0
 5/14/2025     37301
LED Color:           blue
Gain:               2000
Sample Delay (msec):    10
Number Samples:   3
STF (usec):      150
STRP (#samples):       35
STRI (usec):       60
MTF (ms):        0
MTF (#samples):     0
MTRP (#samples):        0
MTRI (usec):      100
PQLen:     4
Ambient Light Source Power: Off
PAR (uMol/m^2/s):630.00
Comment:
Depth(m):   2.2
Temperature(C):  34.8
Battery(V):  16.48

         Time    EX   Fl-Yield 
DATA--------------------------
   0         0     0       0.0 
   1         1   156      57.7 
   2         2   817     228.9 
   3         3   953     334.7 
   4         4   969     313.4 
   5         5   972     272.6 
   6         6   973     279.5 
   7         7   973     308.3 
   8         8   977     359.9 
   9         9   974     330.3 
  10        10   975     354.5 
  11        11   976     397.5 
  12        12   977     295.8 
  13        13   977     297.9 
  14        14   977     379.1 
  15        15   977     358.2 
  16        16   978     350.0 
  17        17   980     338.8 
  18        18   977     327.2 
  19        19   978     324.1 
  20        20   979     366.4 
  21        21   980     359.5 
  22        22   979     354.8 
  23        23   979     308.1 
  24        24   979     420.8 
  25        25   980     323.8 
  26        26   980     330.3 
  27        27   978     339.1 
  28        28   980     424.1 
  29        29   980     374.8 
  30        30   980     329.6 
  31        31   980     312.6 
  32        32   980     356.8 
  33        33   980     369.0 
  34        34   981     398.9 
  35        35   981     296.6 
  36        36   980     405.1 
  37        37   981     349.0 
  38        38   980     330.3 
  39        39   981     354.4 
  40        40   980     371.1 
  41        41   981     355.1 
  42        42   980     339.8 
  43        43   982     333.7 
  44        44   981     290.2 
  45        45   980     369.4 
  46        46   981     386.0 
  47        47   982     366.6 
  48        48   982     357.4 
  49        49   981     388.4 
  50        50   981     369.4 
  51        51   980     384.4 
  52        52   983     328.9 
  53        53   981     302.1 
  54        54   981     342.2 
  55        55   981     396.5 
  56        56   982     300.4 
  57        57   982     429.1 
  58        58   981     368.3 
  59        59   981     359.5 
  60        60   980     333.7 
  61        61   983     387.6 
  62        62   981     385.0 
  63        63   981     342.2 
  64        64   981     376.8 
  65        65   982     327.6 
  66        66   982     354.0 
  67        67   981     320.8 
  68        68   981     367.3 
  69        69   981     283.7 
  70        70   983     319.8 
  71        71   980     293.9 
  72        72   981     305.8 
  73        73   981     349.6 
  74        74   982     359.5 
  75        75   981     357.1 
  76        76   980     369.7 
  77        77   980     298.3 
  78        78   982     335.4 
  79        79   982     385.6 
  80        80   980     330.3 
  81        81   981     328.2 
  82        82   980     307.5 
  83        83   982     329.3 
  84        84   980     288.4 
  85        85   980     316.3 
  86        86   980     326.9 
  87        87   982     289.9 
  88        88   981     293.2 
  89        89   980     366.0 
  90        90   981     266.4 
  91        91   981     272.9 
  92        92   982     333.0 
  93        93   980     294.2 
  94        94   980     288.1 
  95        95   980     282.7 
  96        96   982     276.6 
  97        97   981     318.4 
  98        98   980     315.0 
  99        99   980     342.5 
 100       100   980     332.7 
 101       101   981     311.9 
 102       102   980     303.1 
 103       103   980     303.4 
 104       104   980     309.2 
 105       105   982     342.5 
 106       106   980     293.2 
 107       107   980     317.3 
 108       108   980     319.7 
 109       109   981     386.7 
 110       110   980     352.7 
 111       111   980     340.1 
 112       112   980     372.8 
 113       113   980     379.3 
 114       114   981     405.0 
 115       115   980     367.7 
 116       116   980     311.9 
 117       117   980     344.6 
 118       118   980     350.0 
 119       119   980     377.9 
 120       120   979     321.1 
 121       121   980     338.1 
 122       122   980     376.5 
 123       123   981     398.2 
 124       124   979     369.1 
 125       125   980     391.5 
 126       126   980     358.5 
 127       127   981     345.2 
 128       128   980     371.1 
 129       129   979     427.0 
 130       130   979     470.2 
 131       131   980     384.0 
 132       132   980     454.1 
 133       133   979     348.7 
 134       134   979     419.8 
 135       135   979     439.6 
 136       136   980     436.4 
 137       137   979     444.3 
 138       138   979     413.0 
 139       139   979     471.2 
 140       140   980     435.4 
 141       141   980     379.9 
 142       142   978     447.2 
 143       143   980     459.9 
 144       144   979     426.6 
 145       145   980     420.7 
 146       146   978     435.6 
 147       147   979     455.2 
 148       148   979     472.9 
 149       149   979     404.5 
 150       150   979     404.5 
 151       210  1000     154.3 
 152       270   997     289.9 
 153       330  1000     211.3 
 154       390   996     366.1 
 155       450   996     328.0 
 156       510   996     400.3 
 157       570   994     329.6 
 158       630   998     312.6 
 159       810   983     235.7 
 160       990   980     352.4 
 161      1170   985     245.7 
 162      1350   986     295.1 
 163      1530   981     306.2 
 164      2070   980     253.1 
 165      2691   973     234.7 
 166      3405   978     223.2 
 167      4226   978     410.4 
 168      5170   976     313.5 
 169      6256   975     221.9 
 170      7505   974     234.1 
 171      8941   977     326.9 
 172     10592   975     209.2 
 173     12491   973     320.3 
 174     14675   979     375.9 
 175     17187   975     285.5 
 176     20076   974     203.3 
 177     23398   977     273.6 
 178     27218   979     445.4 
 179     31611   980     216.7 
 180     36663   980     200.3 
 181     42473   977     315.6 
 182     49155   978     354.8 
 183     56839   980     265.3 
 184     65676   977      97.6 
 185     75839   981      97.6 
   1         1   156     145.3 
   2         2   817     402.3 
   3         3   953     331.6 
   4         4   969     314.8 
   5         5   972     245.2 
   6         6   973     357.7 
   7         7   973     335.0 
   8         8   977     336.4 
   9         9   974     361.7 
  10        10   975     413.0 
  11        11   976     458.0 
  12        12   977     500.2 
  13        13   977     447.6 
  14        14   977     453.1 
  15        15   977     564.0 
  16        16   978     523.5 
  17        17   980     463.3 
  18        18   977     429.2 
  19        19   978     477.8 
  20        20   979     418.8 
  21        21   980     406.5 
  22        22   979     356.8 
  23        23   979     375.6 
  24        24   979     393.6 
  25        25   980     361.2 
  26        26   980     300.3 
  27        27   978     314.9 
  28        28   980     364.6 
  29        29   980     323.8 
  30        30   980     302.0 
  31        31   980     336.1 
  32        32   980     306.8 
  33        33   980     320.4 
  34        34   981     330.6 
  35        35   981     265.0 
  36        36   980     373.8 
  37        37   981     310.2 
  38        38   980     309.2 
  39        39   981     277.3 
  40        40   980     274.5 
  41        41   981     370.7 
  42        42   980     387.4 
  43        43   982     302.8 
  44        44   981     368.7 
  45        45   980     395.9 
  46        46   981     347.9 
  47        47   982     342.8 
  48        48   982     309.6 
  49        49   981     379.2 
  50        50   981     327.2 
  51        51   980     355.1 
  52        52   983     326.9 
  53        53   981     389.7 
  54        54   981     414.5 
  55        55   981     367.3 
  56        56   982     326.5 
  57        57   982     369.0 
  58        58   981     411.5 
  59        59   981     338.8 
  60        60   980     323.1 
  61        61   983     361.5 
  62        62   981     387.7 
  63        63   981     358.1 
  64        64   981     336.4 
  65        65   982     275.3 
  66        66   982     385.3 
  67        67   981     425.1 
  68        68   981     364.6 
  69        69   981     302.4 
  70        70   983     377.8 
  71        71   980     396.3 
  72        72   981     300.4 
  73        73   981     356.1 
  74        74   982     356.1 
  75        75   981     408.4 
  76        76   980     321.8 
  77        77   980     364.3 
  78        78   982     291.2 
  79        79   982     401.2 
  80        80   980     296.6 
  81        81   981     354.4 
  82        82   980     354.4 
  83        83   982     392.7 
  84        84   980     391.5 
  85        85   980     324.8 
  86        86   980     352.7 
  87        87   982     313.6 
  88        88   981     384.3 
  89        89   980     305.4 
  90        90   981     311.2 
  91        91   981     312.6 
  92        92   982     365.6 
  93        93   980     354.4 
  94        94   980     338.4 
  95        95   980     366.3 
  96        96   982     363.5 
  97        97   981     330.6 
  98        98   980     322.4 
  99        99   980     374.5 
 100       100   980     408.8 
 101       101   981     381.2 
 102       102   980     358.5 
 103       103   980     352.7 
 104       104   980     410.5 
 105       105   982     374.4 
 106       106   980     402.4 
 107       107   980     353.4 
 108       108   980     377.6 
 109       109   981     395.9 
 110       110   980     370.1 
 111       111   980     309.2 
 112       112   980     353.4 
 113       113   980     405.4 
 114       114   981     351.0 
 115       115   980     351.7 
 116       116   980     417.7 
 117       117   980     377.6 
 118       118   980     376.9 
 119       119   980     348.6 
 120       120   979     365.0 
 121       121   980     376.5 
 122       122   980     430.3 
 123       123   981     318.0 
 124       124   979     358.9 
 125       125   980     417.0 
 126       126   980     392.2 
 127       127   981     397.9 
 128       128   980     361.9 
 129       129   979     353.8 
 130       130   979     397.0 
 131       131   980     356.8 
 132       132   980     335.7 
 133       133   979     354.8 
 134       134   979     391.9 
 135       135   979     324.5 
 136       136   980     297.6 
 137       137   979     347.6 
 138       138   979     358.9 
 139       139   979     378.3 
 140       140   980     359.2 
 141       141   980     329.9 
 142       142   978     385.5 
 143       143   980     390.5 
 144       144   979     273.1 
 145       145   980     317.0 
 146       146   978     439.0 
 147       147   979     360.9 
 148       148   979     303.7 
 149       149   979     384.1 
 150       150   979     384.1 
 151       210  1000     188.3 
 152       270   997     267.5 
 153       330  1000     278.7 
 154       390   996     298.9 
 155       450   996     372.8 
 156       510   996     350.7 
 157       570   994     346.4 
 158       630   998     279.9 
 159       810   983     353.3 
 160       990   980     310.9 
 161      1170   985     411.2 
 162      1350   986     394.5 
 163      1530   981     386.0 
 164      2070   980     363.6 
 165      2691   973     356.3 
 166      3405   978     341.9 
 167      4226   978     300.6 
 168      5170   976     416.0 
 169      6256   975     429.7 
 170      7505   974     387.1 
 171      8941   977     423.1 
 172     10592   975     344.6 
 173     12491   973     379.2 
 174     14675   979     392.6 
 175     17187   975     425.3 
 176     20076   974     278.2 
 177     23398   977     350.4 
 178     27218   979     393.6 
 179     31611   980     233.0 
 180     36663   980     302.0 
 181     42473   977     315.9 
 182     49155   978     318.3 
 183     56839   980     332.7 
 184     65676   977     232.7 
 185     75839   981     232.7 
