PC/104 FIRe Fluorometer 2.0.0
 5/14/2025     45145
LED Color:           blue
Gain:               2000
Sample Delay (msec):    10
Number Samples:   3
STF (usec):      150
STRP (#samples):       35
STRI (usec):       60
MTF (ms):        0
MTF (#samples):     0
MTRP (#samples):        0
MTRI (usec):      100
PQLen:     4
Ambient Light Source Power: Off
PAR (uMol/m^2/s):560.98
Comment:
Depth(m):   2.2
Temperature(C):  36.2
Battery(V):  16.41

         Time    EX   Fl-Yield 
DATA--------------------------
   0         0     0       0.0 
   1         1   156     200.9 
   2         2   817     210.9 
   3         3   953     185.4 
   4         4   969     165.8 
   5         5   972     151.2 
   6         6   973     152.8 
   7         7   973     217.5 
   8         8   977     176.0 
   9         9   974     166.0 
  10        10   975     235.6 
  11        11   976     221.0 
  12        12   977     165.8 
  13        13   977     194.8 
  14        14   977     199.6 
  15        15   977     236.1 
  16        16   978     288.7 
  17        17   980     169.4 
  18        18   977     172.0 
  19        19   978     171.1 
  20        20   979     247.2 
  21        21   980     189.8 
  22        22   979     174.7 
  23        23   979     243.8 
  24        24   979     202.6 
  25        25   980     155.1 
  26        26   980     155.4 
  27        27   978     191.5 
  28        28   980     235.7 
  29        29   980     191.5 
  30        30   980     167.3 
  31        31   980     169.4 
  32        32   980     237.4 
  33        33   980     248.3 
  34        34   981     176.0 
  35        35   981     126.1 
  36        36   980     150.0 
  37        37   981     182.8 
  38        38   980     207.1 
  39        39   981     144.8 
  40        40   980     220.1 
  41        41   981     185.9 
  42        42   980     164.3 
  43        43   982     190.8 
  44        44   981     201.2 
  45        45   980     184.7 
  46        46   981     237.5 
  47        47   982      97.8 
  48        48   982     131.0 
  49        49   981     131.5 
  50        50   981     226.6 
  51        51   980     131.0 
  52        52   983     148.9 
  53        53   981     163.8 
  54        54   981     206.3 
  55        55   981     158.3 
  56        56   982     155.1 
  57        57   982     180.6 
  58        58   981     182.5 
  59        59   981     206.3 
  60        60   980     101.4 
  61        61   983     171.2 
  62        62   981     168.2 
  63        63   981     165.8 
  64        64   981     104.0 
  65        65   982     113.0 
  66        66   982     211.1 
  67        67   981     135.6 
  68        68   981     143.7 
  69        69   981     150.5 
  70        70   983     160.7 
  71        71   980     198.0 
  72        72   981     128.1 
  73        73   981     145.8 
  74        74   982     184.3 
  75        75   981     163.8 
  76        76   980     125.9 
  77        77   980      85.4 
  78        78   982     166.0 
  79        79   982     240.7 
  80        80   980     125.5 
  81        81   981     111.1 
  82        82   980     191.8 
  83        83   982     211.1 
  84        84   980     154.1 
  85        85   980     179.3 
  86        86   980     133.0 
  87        87   982     172.4 
  88        88   981     123.3 
  89        89   980     128.2 
  90        90   981     101.3 
  91        91   981     184.5 
  92        92   982     133.1 
  93        93   980     119.0 
  94        94   980      96.9 
  95        95   980     158.5 
  96        96   982     142.9 
  97        97   981     147.1 
  98        98   980      94.9 
  99        99   980     112.6 
 100       100   980     143.2 
 101       101   981      86.3 
 102       102   980      93.5 
 103       103   980     125.2 
 104       104   980     203.1 
 105       105   982     138.5 
 106       106   980     108.5 
 107       107   980     118.4 
 108       108   980     208.5 
 109       109   981     184.5 
 110       110   980     113.6 
 111       111   980     121.8 
 112       112   980      91.2 
 113       113   980     174.5 
 114       114   981     186.2 
 115       115   980     112.9 
 116       116   980     178.6 
 117       117   980     236.4 
 118       118   980     224.1 
 119       119   980     213.3 
 120       120   979     140.6 
 121       121   980     212.6 
 122       122   980     188.4 
 123       123   981     187.9 
 124       124   979     120.2 
 125       125   980     165.3 
 126       126   980     237.4 
 127       127   981     252.5 
 128       128   980     142.2 
 129       129   979     215.9 
 130       130   979     229.1 
 131       131   980     137.4 
 132       132   980     146.3 
 133       133   979     128.0 
 134       134   979     302.0 
 135       135   979     190.0 
 136       136   980     186.7 
 137       137   979     240.7 
 138       138   979     296.9 
 139       139   979     259.8 
 140       140   980     207.1 
 141       141   980     176.5 
 142       142   978     183.4 
 143       143   980     273.1 
 144       144   979     231.2 
 145       145   980     270.7 
 146       146   978     257.7 
 147       147   979     306.4 
 148       148   979     255.4 
 149       149   979     271.4 
 150       150   979     271.4 
 151       210  1000     124.0 
 152       270   997     206.6 
 153       330  1000      36.0 
 154       390   996     211.5 
 155       450   996     143.6 
 156       510   996     313.6 
 157       570   994     229.0 
 158       630   998     332.7 
 159       810   983      78.0 
 160       990   980     308.5 
 161      1170   985      54.1 
 162      1350   986     287.4 
 163      1530   981     128.4 
 164      2070   980      28.2 
 165      2691   973     179.5 
 166      3405   978     177.9 
 167      4226   978     193.6 
 168      5170   976     202.2 
 169      6256   975     237.3 
 170      7505   974      87.6 
 171      8941   977     226.2 
 172     10592   975     326.2 
 173     12491   973      72.6 
 174     14675   979     192.0 
 175     17187   975     217.4 
 176     20076   974     243.3 
 177     23398   977     225.5 
 178     27218   979     250.3 
 179     31611   980      35.0 
 180     36663   980     131.6 
 181     42473   977     245.6 
 182     49155   978     242.3 
 183     56839   980     163.6 
 184     65676   977     147.0 
 185     75839   981     147.0 
   1         1   156      70.5 
   2         2   817      59.2 
   3         3   953     146.6 
   4         4   969     185.8 
   5         5   972      61.0 
   6         6   973     136.3 
   7         7   973     121.6 
   8         8   977     238.5 
   9         9   974     241.6 
  10        10   975     228.0 
  11        11   976     187.8 
  12        12   977     358.9 
  13        13   977     291.7 
  14        14   977     402.9 
  15        15   977     327.2 
  16        16   978     346.3 
  17        17   980     343.9 
  18        18   977     283.5 
  19        19   978     259.4 
  20        20   979     274.8 
  21        21   980     358.5 
  22        22   979     222.3 
  23        23   979     151.9 
  24        24   979     195.8 
  25        25   980     188.1 
  26        26   980     215.6 
  27        27   978     173.5 
  28        28   980     123.1 
  29        29   980     191.2 
  30        30   980     226.9 
  31        31   980     237.8 
  32        32   980     152.7 
  33        33   980     169.7 
  34        34   981     195.0 
  35        35   981     176.4 
  36        36   980     123.1 
  37        37   981     162.8 
  38        38   980     210.5 
  39        39   981     149.2 
  40        40   980     197.6 
  41        41   981     182.5 
  42        42   980     261.2 
  43        43   982     202.0 
  44        44   981     217.8 
  45        45   980     230.3 
  46        46   981     202.5 
  47        47   982     211.5 
  48        48   982     202.3 
  49        49   981     210.0 
  50        50   981     206.3 
  51        51   980     222.1 
  52        52   983     220.8 
  53        53   981     192.7 
  54        54   981     163.1 
  55        55   981     269.5 
  56        56   982     184.0 
  57        57   982     174.1 
  58        58   981     206.3 
  59        59   981     221.2 
  60        60   980     281.0 
  61        61   983     235.0 
  62        62   981     166.5 
  63        63   981     249.4 
  64        64   981     258.6 
  65        65   982     231.5 
  66        66   982     203.0 
  67        67   981     168.2 
  68        68   981     210.0 
  69        69   981     212.7 
  70        70   983     137.7 
  71        71   980     210.5 
  72        72   981     260.6 
  73        73   981     203.9 
  74        74   982     180.9 
  75        75   981     211.0 
  76        76   980     194.6 
  77        77   980     238.1 
  78        78   982     198.6 
  79        79   982     166.0 
  80        80   980     189.5 
  81        81   981     211.0 
  82        82   980     190.1 
  83        83   982     188.1 
  84        84   980     205.8 
  85        85   980     203.4 
  86        86   980     222.4 
  87        87   982     214.5 
  88        88   981     198.4 
  89        89   980     231.6 
  90        90   981     230.0 
  91        91   981     214.1 
  92        92   982     174.1 
  93        93   980     245.9 
  94        94   980     231.0 
  95        95   980     227.2 
  96        96   982     209.4 
  97        97   981     233.8 
  98        98   980     286.4 
  99        99   980     255.4 
 100       100   980     200.3 
 101       101   981     265.7 
 102       102   980     281.0 
 103       103   980     245.9 
 104       104   980     210.2 
 105       105   982     247.1 
 106       106   980     271.8 
 107       107   980     242.5 
 108       108   980     228.9 
 109       109   981     213.4 
 110       110   980     227.6 
 111       111   980     260.2 
 112       112   980     216.7 
 113       113   980     177.6 
 114       114   981     190.3 
 115       115   980     255.1 
 116       116   980     178.6 
 117       117   980     242.5 
 118       118   980     227.6 
 119       119   980     258.2 
 120       120   979     208.7 
 121       121   980     153.7 
 122       122   980     212.6 
 123       123   981     221.2 
 124       124   979     232.9 
 125       125   980     156.5 
 126       126   980     240.5 
 127       127   981     212.7 
 128       128   980     246.3 
 129       129   979     246.9 
 130       130   979     250.6 
 131       131   980     244.9 
 132       132   980     225.9 
 133       133   979     209.1 
 134       134   979     154.9 
 135       135   979     192.7 
 136       136   980     226.2 
 137       137   979     242.1 
 138       138   979     150.8 
 139       139   979     193.1 
 140       140   980     202.0 
 141       141   980     198.3 
 142       142   978     232.1 
 143       143   980     179.3 
 144       144   979     256.4 
 145       145   980     276.2 
 146       146   978     212.7 
 147       147   979     195.8 
 148       148   979     240.0 
 149       149   979     207.0 
 150       150   979     207.0 
 151       210  1000     292.3 
 152       270   997     272.5 
 153       330  1000     303.3 
 154       390   996     225.6 
 155       450   996     202.1 
 156       510   996     140.6 
 157       570   994      82.8 
 158       630   998     147.0 
 159       810   983     311.0 
 160       990   980     185.0 
 161      1170   985     277.2 
 162      1350   986     251.9 
 163      1530   981      54.7 
 164      2070   980     191.5 
 165      2691   973     227.1 
 166      3405   978     256.0 
 167      4226   978     237.6 
 168      5170   976      66.9 
 169      6256   975     297.1 
 170      7505   974     260.8 
 171      8941   977     113.3 
 172     10592   975     274.9 
 173     12491   973     160.7 
 174     14675   979     167.5 
 175     17187   975     104.3 
 176     20076   974     159.1 
 177     23398   977      64.8 
 178     27218   979     234.6 
 179     31611   980     190.8 
 180     36663   980     121.8 
 181     42473   977      63.1 
 182     49155   978     256.0 
 183     56839   980      64.3 
 184     65676   977     183.9 
 185     75839   981     183.9 
