PC/104 FIRe Fluorometer 2.0.0
 5/14/2025     43174
LED Color:           blue
Gain:               2000
Sample Delay (msec):    10
Number Samples:   3
STF (usec):      150
STRP (#samples):       35
STRI (usec):       60
MTF (ms):        0
MTF (#samples):     0
MTRP (#samples):        0
MTRI (usec):      100
PQLen:     4
Ambient Light Source Power: Off
PAR (uMol/m^2/s):441.00
Comment:
Depth(m):   3.2
Temperature(C):  36.0
Battery(V):  16.41

         Time    EX   Fl-Yield 
DATA--------------------------
   0         0     0       0.0 
   1         1   156     320.5 
   2         2   817     342.7 
   3         3   953     316.2 
   4         4   969     389.1 
   5         5   972     357.0 
   6         6   973     350.1 
   7         7   973     364.9 
   8         8   977     332.3 
   9         9   974     334.7 
  10        10   975     425.3 
  11        11   976     366.8 
  12        12   977     435.3 
  13        13   977     422.0 
  14        14   977     469.1 
  15        15   977     401.2 
  16        16   978     418.9 
  17        17   980     417.3 
  18        18   977     433.6 
  19        19   978     415.8 
  20        20   979     339.8 
  21        21   980     387.4 
  22        22   979     427.0 
  23        23   979     420.5 
  24        24   979     372.8 
  25        25   980     450.0 
  26        26   980     406.8 
  27        27   978     438.3 
  28        28   980     412.9 
  29        29   980     458.8 
  30        30   980     418.4 
  31        31   980     499.0 
  32        32   980     393.5 
  33        33   980     472.1 
  34        34   981     434.6 
  35        35   981     474.3 
  36        36   980     420.4 
  37        37   981     395.9 
  38        38   980     484.0 
  39        39   981     415.9 
  40        40   980     421.4 
  41        41   981     453.3 
  42        42   980     451.0 
  43        43   982     446.7 
  44        44   981     454.6 
  45        45   980     481.3 
  46        46   981     450.9 
  47        47   982     420.2 
  48        48   982     485.7 
  49        49   981     396.2 
  50        50   981     432.9 
  51        51   980     441.5 
  52        52   983     443.5 
  53        53   981     460.8 
  54        54   981     466.9 
  55        55   981     422.4 
  56        56   982     473.5 
  57        57   982     404.6 
  58        58   981     411.1 
  59        59   981     477.4 
  60        60   980     500.3 
  61        61   983     499.2 
  62        62   981     445.5 
  63        63   981     419.6 
  64        64   981     474.0 
  65        65   982     494.9 
  66        66   982     389.0 
  67        67   981     491.0 
  68        68   981     483.9 
  69        69   981     515.5 
  70        70   983     484.9 
  71        71   980     427.6 
  72        72   981     504.6 
  73        73   981     494.1 
  74        74   982     502.7 
  75        75   981     521.9 
  76        76   980     480.3 
  77        77   980     573.1 
  78        78   982     555.7 
  79        79   982     544.1 
  80        80   980     600.7 
  81        81   981     575.3 
  82        82   980     532.0 
  83        83   982     498.3 
  84        84   980     537.4 
  85        85   980     565.6 
  86        86   980     560.5 
  87        87   982     518.7 
  88        88   981     515.8 
  89        89   980     537.8 
  90        90   981     553.2 
  91        91   981     597.7 
  92        92   982     530.2 
  93        93   980     534.4 
  94        94   980     481.0 
  95        95   980     537.8 
  96        96   982     544.8 
  97        97   981     575.6 
  98        98   980     525.2 
  99        99   980     518.7 
 100       100   980     537.1 
 101       101   981     511.0 
 102       102   980     518.7 
 103       103   980     585.4 
 104       104   980     492.2 
 105       105   982     543.4 
 106       106   980     560.2 
 107       107   980     566.3 
 108       108   980     582.0 
 109       109   981     460.8 
 110       110   980     579.6 
 111       111   980     581.0 
 112       112   980     572.4 
 113       113   980     512.2 
 114       114   981     609.9 
 115       115   980     539.8 
 116       116   980     554.1 
 117       117   980     470.1 
 118       118   980     551.4 
 119       119   980     563.6 
 120       120   979     577.5 
 121       121   980     545.6 
 122       122   980     517.7 
 123       123   981     554.9 
 124       124   979     577.1 
 125       125   980     529.6 
 126       126   980     522.1 
 127       127   981     557.3 
 128       128   980     611.2 
 129       129   979     540.3 
 130       130   979     520.3 
 131       131   980     568.4 
 132       132   980     621.8 
 133       133   979     623.4 
 134       134   979     469.5 
 135       135   979     567.6 
 136       136   980     573.5 
 137       137   979     626.8 
 138       138   979     537.6 
 139       139   979     573.0 
 140       140   980     568.0 
 141       141   980     575.2 
 142       142   978     552.5 
 143       143   980     506.5 
 144       144   979     525.7 
 145       145   980     582.3 
 146       146   978     517.7 
 147       147   979     536.6 
 148       148   979     523.0 
 149       149   979     588.0 
 150       150   979     588.0 
 151       210  1000     533.7 
 152       270   997     486.5 
 153       330  1000     587.7 
 154       390   996     540.8 
 155       450   996     611.1 
 156       510   996     381.5 
 157       570   994     554.7 
 158       630   998     499.7 
 159       810   983     440.1 
 160       990   980     527.9 
 161      1170   985     409.8 
 162      1350   986     428.7 
 163      1530   981     444.4 
 164      2070   980     458.5 
 165      2691   973     495.0 
 166      3405   978     386.5 
 167      4226   978     372.5 
 168      5170   976     479.2 
 169      6256   975     393.8 
 170      7505   974     434.3 
 171      8941   977     465.7 
 172     10592   975     384.3 
 173     12491   973     311.1 
 174     14675   979     406.5 
 175     17187   975     452.0 
 176     20076   974     328.2 
 177     23398   977     280.8 
 178     27218   979     440.6 
 179     31611   980     393.5 
 180     36663   980     499.0 
 181     42473   977     350.7 
 182     49155   978     368.1 
 183     56839   980     401.7 
 184     65676   977     388.6 
 185     75839   981     388.6 
   1         1   156     384.6 
   2         2   817     555.7 
   3         3   953     480.6 
   4         4   969     432.1 
   5         5   972     504.5 
   6         6   973     503.3 
   7         7   973     561.2 
   8         8   977     497.8 
   9         9   974     547.9 
  10        10   975     587.7 
  11        11   976     611.3 
  12        12   977     618.9 
  13        13   977     625.4 
  14        14   977     673.1 
  15        15   977     682.7 
  16        16   978     652.0 
  17        17   980     698.3 
  18        18   977     643.8 
  19        19   978     645.9 
  20        20   979     589.4 
  21        21   980     576.2 
  22        22   979     595.8 
  23        23   979     588.7 
  24        24   979     541.4 
  25        25   980     572.4 
  26        26   980     512.9 
  27        27   978     600.2 
  28        28   980     534.7 
  29        29   980     478.6 
  30        30   980     466.3 
  31        31   980     537.4 
  32        32   980     523.1 
  33        33   980     488.8 
  34        34   981     509.7 
  35        35   981     515.8 
  36        36   980     520.4 
  37        37   981     516.5 
  38        38   980     582.7 
  39        39   981     518.5 
  40        40   980     499.0 
  41        41   981     483.2 
  42        42   980     510.9 
  43        43   982     508.5 
  44        44   981     533.8 
  45        45   980     546.9 
  46        46   981     529.1 
  47        47   982     580.1 
  48        48   982     562.8 
  49        49   981     492.0 
  50        50   981     472.3 
  51        51   980     517.3 
  52        52   983     547.3 
  53        53   981     515.5 
  54        54   981     560.0 
  55        55   981     580.7 
  56        56   982     555.7 
  57        57   982     538.0 
  58        58   981     545.7 
  59        59   981     505.3 
  60        60   980     572.4 
  61        61   983     600.5 
  62        62   981     582.1 
  63        63   981     558.3 
  64        64   981     616.7 
  65        65   982     565.2 
  66        66   982     627.6 
  67        67   981     570.5 
  68        68   981     562.0 
  69        69   981     545.0 
  70        70   983     639.5 
  71        71   980     585.7 
  72        72   981     612.3 
  73        73   981     539.6 
  74        74   982     605.2 
  75        75   981     581.4 
  76        76   980     600.0 
  77        77   980     639.5 
  78        78   982     621.5 
  79        79   982     607.3 
  80        80   980     610.5 
  81        81   981     618.1 
  82        82   980     656.1 
  83        83   982     611.7 
  84        84   980     622.1 
  85        85   980     636.1 
  86        86   980     605.1 
  87        87   982     666.3 
  88        88   981     653.1 
  89        89   980     641.8 
  90        90   981     675.2 
  91        91   981     672.8 
  92        92   982     612.4 
  93        93   980     637.8 
  94        94   980     657.1 
  95        95   980     624.5 
  96        96   982     651.4 
  97        97   981     594.3 
  98        98   980     584.0 
  99        99   980     636.7 
 100       100   980     713.6 
 101       101   981     657.8 
 102       102   980     574.5 
 103       103   980     613.3 
 104       104   980     650.3 
 105       105   982     632.0 
 106       106   980     620.4 
 107       107   980     624.5 
 108       108   980     675.5 
 109       109   981     569.1 
 110       110   980     653.1 
 111       111   980     625.9 
 112       112   980     610.9 
 113       113   980     631.6 
 114       114   981     612.6 
 115       115   980     592.9 
 116       116   980     620.1 
 117       117   980     633.7 
 118       118   980     615.6 
 119       119   980     635.7 
 120       120   979     591.8 
 121       121   980     616.3 
 122       122   980     620.1 
 123       123   981     637.1 
 124       124   979     557.7 
 125       125   980     654.8 
 126       126   980     572.1 
 127       127   981     590.2 
 128       128   980     587.1 
 129       129   979     567.2 
 130       130   979     612.9 
 131       131   980     596.9 
 132       132   980     620.7 
 133       133   979     597.5 
 134       134   979     588.4 
 135       135   979     584.3 
 136       136   980     544.9 
 137       137   979     573.0 
 138       138   979     592.8 
 139       139   979     511.7 
 140       140   980     589.5 
 141       141   980     649.0 
 142       142   978     599.9 
 143       143   980     579.6 
 144       144   979     551.9 
 145       145   980     589.8 
 146       146   978     601.9 
 147       147   979     550.6 
 148       148   979     604.4 
 149       149   979     534.9 
 150       150   979     534.9 
 151       210  1000     671.7 
 152       270   997     596.1 
 153       330  1000     703.7 
 154       390   996     638.9 
 155       450   996     672.4 
 156       510   996     499.7 
 157       570   994     607.0 
 158       630   998     494.7 
 159       810   983     688.7 
 160       990   980     549.7 
 161      1170   985     709.6 
 162      1350   986     570.7 
 163      1530   981     629.3 
 164      2070   980     650.0 
 165      2691   973     496.7 
 166      3405   978     576.0 
 167      4226   978     554.5 
 168      5170   976     471.0 
 169      6256   975     534.0 
 170      7505   974     546.9 
 171      8941   977     560.2 
 172     10592   975     650.3 
 173     12491   973     531.0 
 174     14675   979     533.9 
 175     17187   975     430.4 
 176     20076   974     495.6 
 177     23398   977     513.8 
 178     27218   979     537.6 
 179     31611   980     538.1 
 180     36663   980     370.4 
 181     42473   977     465.4 
 182     49155   978     506.8 
 183     56839   980     460.9 
 184     65676   977     468.4 
 185     75839   981     468.4 
