PC/104 FIRe Fluorometer 2.0.0
 5/14/2025     39199
LED Color:           blue
Gain:               1500
Sample Delay (msec):    10
Number Samples:   3
STF (usec):      150
STRP (#samples):       35
STRI (usec):       60
MTF (ms):        0
MTF (#samples):     0
MTRP (#samples):        0
MTRI (usec):      100
PQLen:     4
Ambient Light Source Power: Off
PAR (uMol/m^2/s):611.51
Comment:
Depth(m):   2.2
Temperature(C):  35.2
Battery(V):  16.48

         Time    EX   Fl-Yield 
DATA--------------------------
   0         0     0       0.0 
   1         1   156     341.9 
   2         2   817     247.7 
   3         3   953     266.9 
   4         4   969     274.2 
   5         5   972     302.5 
   6         6   973     261.7 
   7         7   973     282.6 
   8         8   977     290.0 
   9         9   974     315.2 
  10        10   975     300.9 
  11        11   976     268.1 
  12        12   977     293.4 
  13        13   977     323.1 
  14        14   977     305.7 
  15        15   977     281.8 
  16        16   978     304.7 
  17        17   980     325.2 
  18        18   977     336.1 
  19        19   978     309.5 
  20        20   979     309.2 
  21        21   980     320.1 
  22        22   979     328.6 
  23        23   979     316.6 
  24        24   979     325.8 
  25        25   980     331.0 
  26        26   980     341.5 
  27        27   978     326.9 
  28        28   980     333.7 
  29        29   980     318.0 
  30        30   980     363.6 
  31        31   980     357.8 
  32        32   980     316.7 
  33        33   980     343.9 
  34        34   981     378.2 
  35        35   981     356.1 
  36        36   980     337.4 
  37        37   981     349.0 
  38        38   980     355.8 
  39        39   981     376.1 
  40        40   980     346.9 
  41        41   981     353.4 
  42        42   980     365.3 
  43        43   982     379.8 
  44        44   981     368.0 
  45        45   980     349.7 
  46        46   981     337.1 
  47        47   982     358.5 
  48        48   982     370.0 
  49        49   981     356.8 
  50        50   981     363.9 
  51        51   980     376.9 
  52        52   983     386.6 
  53        53   981     355.8 
  54        54   981     347.3 
  55        55   981     372.7 
  56        56   982     398.8 
  57        57   982     369.3 
  58        58   981     386.3 
  59        59   981     371.7 
  60        60   980     385.4 
  61        61   983     368.9 
  62        62   981     350.0 
  63        63   981     369.0 
  64        64   981     386.7 
  65        65   982     393.8 
  66        66   982     362.5 
  67        67   981     361.2 
  68        68   981     395.5 
  69        69   981     376.1 
  70        70   983     358.1 
  71        71   980     345.2 
  72        72   981     379.2 
  73        73   981     379.5 
  74        74   982     372.0 
  75        75   981     362.6 
  76        76   980     382.3 
  77        77   980     395.6 
  78        78   982     369.0 
  79        79   982     358.5 
  80        80   980     380.3 
  81        81   981     388.4 
  82        82   980     392.2 
  83        83   982     362.9 
  84        84   980     376.2 
  85        85   980     398.0 
  86        86   980     401.0 
  87        87   982     355.1 
  88        88   981     370.7 
  89        89   980     381.6 
  90        90   981     395.2 
  91        91   981     364.6 
  92        92   982     371.0 
  93        93   980     382.3 
  94        94   980     402.7 
  95        95   980     361.9 
  96        96   982     380.9 
  97        97   981     374.1 
  98        98   980     382.7 
  99        99   980     379.3 
 100       100   980     361.2 
 101       101   981     352.4 
 102       102   980     385.0 
 103       103   980     370.4 
 104       104   980     352.0 
 105       105   982     354.0 
 106       106   980     406.1 
 107       107   980     383.7 
 108       108   980     375.2 
 109       109   981     357.8 
 110       110   980     388.1 
 111       111   980     375.5 
 112       112   980     367.3 
 113       113   980     361.2 
 114       114   981     362.2 
 115       115   980     407.8 
 116       116   980     372.4 
 117       117   980     372.1 
 118       118   980     376.5 
 119       119   980     383.3 
 120       120   979     390.2 
 121       121   980     363.3 
 122       122   980     358.5 
 123       123   981     386.7 
 124       124   979     398.4 
 125       125   980     370.1 
 126       126   980     350.3 
 127       127   981     397.6 
 128       128   980     386.1 
 129       129   979     379.3 
 130       130   979     370.8 
 131       131   980     383.3 
 132       132   980     397.3 
 133       133   979     388.8 
 134       134   979     358.5 
 135       135   979     391.9 
 136       136   980     383.7 
 137       137   979     394.3 
 138       138   979     367.4 
 139       139   979     371.5 
 140       140   980     389.1 
 141       141   980     399.0 
 142       142   978     365.0 
 143       143   980     388.1 
 144       144   979     388.2 
 145       145   980     405.4 
 146       146   978     367.4 
 147       147   979     360.6 
 148       148   979     382.4 
 149       149   979     375.2 
 150       150   979     375.2 
 151       210  1000     335.3 
 152       270   997     383.5 
 153       330  1000     382.7 
 154       390   996     351.1 
 155       450   996     309.6 
 156       510   996     303.2 
 157       570   994     315.9 
 158       630   998     374.4 
 159       810   983     312.3 
 160       990   980     321.4 
 161      1170   985     329.3 
 162      1350   986     256.6 
 163      1530   981     300.7 
 164      2070   980     247.6 
 165      2691   973     299.4 
 166      3405   978     279.8 
 167      4226   978     246.8 
 168      5170   976     235.3 
 169      6256   975     236.9 
 170      7505   974     275.8 
 171      8941   977     238.1 
 172     10592   975     272.1 
 173     12491   973     237.4 
 174     14675   979     261.2 
 175     17187   975     243.4 
 176     20076   974     270.0 
 177     23398   977     269.2 
 178     27218   979     244.5 
 179     31611   980     252.4 
 180     36663   980     261.6 
 181     42473   977     236.4 
 182     49155   978     241.0 
 183     56839   980     253.4 
 184     65676   977     252.8 
 185     75839   981     252.8 
   1         1   156     288.5 
   2         2   817     370.1 
   3         3   953     365.9 
   4         4   969     355.3 
   5         5   972     338.1 
   6         6   973     357.3 
   7         7   973     383.4 
   8         8   977     376.3 
   9         9   974     375.1 
  10        10   975     396.2 
  11        11   976     400.3 
  12        12   977     405.3 
  13        13   977     410.4 
  14        14   977     433.6 
  15        15   977     437.4 
  16        16   978     431.2 
  17        17   980     418.4 
  18        18   977     424.8 
  19        19   978     405.6 
  20        20   979     409.3 
  21        21   980     417.7 
  22        22   979     391.9 
  23        23   979     401.8 
  24        24   979     405.9 
  25        25   980     396.9 
  26        26   980     390.5 
  27        27   978     388.5 
  28        28   980     386.7 
  29        29   980     398.3 
  30        30   980     405.8 
  31        31   980     386.7 
  32        32   980     407.1 
  33        33   980     392.9 
  34        34   981     397.2 
  35        35   981     401.3 
  36        36   980     430.6 
  37        37   981     393.1 
  38        38   980     424.5 
  39        39   981     392.1 
  40        40   980     433.0 
  41        41   981     427.5 
  42        42   980     398.0 
  43        43   982     409.4 
  44        44   981     400.3 
  45        45   980     429.3 
  46        46   981     411.5 
  47        47   982     414.5 
  48        48   982     424.6 
  49        49   981     413.2 
  50        50   981     407.4 
  51        51   980     408.2 
  52        52   983     422.2 
  53        53   981     425.8 
  54        54   981     404.0 
  55        55   981     415.9 
  56        56   982     390.0 
  57        57   982     427.4 
  58        58   981     435.3 
  59        59   981     415.2 
  60        60   980     402.7 
  61        61   983     406.6 
  62        62   981     406.4 
  63        63   981     410.1 
  64        64   981     417.3 
  65        65   982     401.2 
  66        66   982     419.2 
  67        67   981     413.9 
  68        68   981     385.3 
  69        69   981     405.0 
  70        70   983     419.8 
  71        71   980     408.2 
  72        72   981     390.1 
  73        73   981     401.3 
  74        74   982     412.1 
  75        75   981     413.5 
  76        76   980     407.1 
  77        77   980     411.9 
  78        78   982     406.7 
  79        79   982     405.0 
  80        80   980     403.7 
  81        81   981     381.9 
  82        82   980     411.6 
  83        83   982     420.6 
  84        84   980     396.9 
  85        85   980     385.4 
  86        86   980     391.2 
  87        87   982     411.7 
  88        88   981     398.9 
  89        89   980     397.6 
  90        90   981     385.7 
  91        91   981     392.1 
  92        92   982     395.1 
  93        93   980     410.9 
  94        94   980     403.4 
  95        95   980     398.6 
  96        96   982     399.9 
  97        97   981     400.3 
  98        98   980     384.7 
  99        99   980     413.9 
 100       100   980     395.9 
 101       101   981     386.0 
 102       102   980     381.6 
 103       103   980     382.7 
 104       104   980     413.9 
 105       105   982     397.5 
 106       106   980     394.2 
 107       107   980     382.7 
 108       108   980     397.3 
 109       109   981     401.6 
 110       110   980     382.0 
 111       111   980     409.9 
 112       112   980     382.3 
 113       113   980     394.2 
 114       114   981     387.0 
 115       115   980     379.9 
 116       116   980     399.3 
 117       117   980     390.5 
 118       118   980     381.0 
 119       119   980     379.9 
 120       120   979     391.6 
 121       121   980     384.7 
 122       122   980     400.3 
 123       123   981     383.3 
 124       124   979     374.2 
 125       125   980     378.2 
 126       126   980     373.5 
 127       127   981     395.9 
 128       128   980     391.8 
 129       129   979     389.2 
 130       130   979     388.5 
 131       131   980     391.5 
 132       132   980     375.2 
 133       133   979     396.0 
 134       134   979     395.3 
 135       135   979     383.4 
 136       136   980     381.0 
 137       137   979     382.0 
 138       138   979     391.2 
 139       139   979     391.9 
 140       140   980     404.1 
 141       141   980     382.0 
 142       142   978     414.1 
 143       143   980     395.2 
 144       144   979     405.2 
 145       145   980     407.5 
 146       146   978     408.0 
 147       147   979     408.6 
 148       148   979     404.2 
 149       149   979     419.1 
 150       150   979     419.1 
 151       210  1000     317.7 
 152       270   997     376.5 
 153       330  1000     340.0 
 154       390   996     377.8 
 155       450   996     369.8 
 156       510   996     428.7 
 157       570   994     386.3 
 158       630   998     408.8 
 159       810   983     333.0 
 160       990   980     395.9 
 161      1170   985     311.7 
 162      1350   986     346.9 
 163      1530   981     370.4 
 164      2070   980     313.9 
 165      2691   973     300.1 
 166      3405   978     344.9 
 167      4226   978     398.1 
 168      5170   976     326.8 
 169      6256   975     327.5 
 170      7505   974     321.4 
 171      8941   977     348.7 
 172     10592   975     342.6 
 173     12491   973     293.6 
 174     14675   979     313.2 
 175     17187   975     352.8 
 176     20076   974     306.0 
 177     23398   977     353.8 
 178     27218   979     301.0 
 179     31611   980     303.1 
 180     36663   980     281.0 
 181     42473   977     291.0 
 182     49155   978     277.4 
 183     56839   980     290.5 
 184     65676   977     303.0 
 185     75839   981     303.0 
