PC/104 FIRe Fluorometer 2.0.0
 5/14/2025     43100
LED Color:           blue
Gain:               1400
Sample Delay (msec):    10
Number Samples:   3
STF (usec):      150
STRP (#samples):       35
STRI (usec):       60
MTF (ms):        0
MTF (#samples):     0
MTRP (#samples):        0
MTRI (usec):      100
PQLen:     4
Ambient Light Source Power: Off
PAR (uMol/m^2/s):900.00
Comment:
Depth(m):   2.3
Temperature(C):  34.6
Battery(V):  16.46

         Time    EX   Fl-Yield 
DATA--------------------------
   0         0     0       0.0 
   1         1   156     245.7 
   2         2   817     273.8 
   3         3   953     275.3 
   4         4   969     294.1 
   5         5   972     287.7 
   6         6   973     298.0 
   7         7   973     293.9 
   8         8   977     290.7 
   9         9   974     294.0 
  10        10   975     299.5 
  11        11   976     313.2 
  12        12   977     293.4 
  13        13   977     304.7 
  14        14   977     313.5 
  15        15   977     321.1 
  16        16   978     312.5 
  17        17   980     308.8 
  18        18   977     309.8 
  19        19   978     327.9 
  20        20   979     316.0 
  21        21   980     309.5 
  22        22   979     328.2 
  23        23   979     313.2 
  24        24   979     318.0 
  25        25   980     313.9 
  26        26   980     329.9 
  27        27   978     333.7 
  28        28   980     337.1 
  29        29   980     330.6 
  30        30   980     320.7 
  31        31   980     327.6 
  32        32   980     343.2 
  33        33   980     335.7 
  34        34   981     338.4 
  35        35   981     341.5 
  36        36   980     344.6 
  37        37   981     340.1 
  38        38   980     338.8 
  39        39   981     341.5 
  40        40   980     354.4 
  41        41   981     361.9 
  42        42   980     333.0 
  43        43   982     360.8 
  44        44   981     366.3 
  45        45   980     359.5 
  46        46   981     357.1 
  47        47   982     350.6 
  48        48   982     344.5 
  49        49   981     362.2 
  50        50   981     358.1 
  51        51   980     357.5 
  52        52   983     349.6 
  53        53   981     370.7 
  54        54   981     340.8 
  55        55   981     353.4 
  56        56   982     364.2 
  57        57   982     355.7 
  58        58   981     344.5 
  59        59   981     344.9 
  60        60   980     354.4 
  61        61   983     348.9 
  62        62   981     367.0 
  63        63   981     341.5 
  64        64   981     361.5 
  65        65   982     352.0 
  66        66   982     369.0 
  67        67   981     349.0 
  68        68   981     353.4 
  69        69   981     340.1 
  70        70   983     359.4 
  71        71   980     340.1 
  72        72   981     332.3 
  73        73   981     362.2 
  74        74   982     347.3 
  75        75   981     326.9 
  76        76   980     341.2 
  77        77   980     358.2 
  78        78   982     365.9 
  79        79   982     364.6 
  80        80   980     364.6 
  81        81   981     354.4 
  82        82   980     367.7 
  83        83   982     361.2 
  84        84   980     361.9 
  85        85   980     357.1 
  86        86   980     355.1 
  87        87   982     358.1 
  88        88   981     361.2 
  89        89   980     361.9 
  90        90   981     371.4 
  91        91   981     357.1 
  92        92   982     357.8 
  93        93   980     359.5 
  94        94   980     359.2 
  95        95   980     361.2 
  96        96   982     357.4 
  97        97   981     347.9 
  98        98   980     352.7 
  99        99   980     357.5 
 100       100   980     346.3 
 101       101   981     355.8 
 102       102   980     350.3 
 103       103   980     362.6 
 104       104   980     344.6 
 105       105   982     351.0 
 106       106   980     357.5 
 107       107   980     367.3 
 108       108   980     353.7 
 109       109   981     343.5 
 110       110   980     344.6 
 111       111   980     354.4 
 112       112   980     346.3 
 113       113   980     360.9 
 114       114   981     354.7 
 115       115   980     365.0 
 116       116   980     362.2 
 117       117   980     357.1 
 118       118   980     356.5 
 119       119   980     346.9 
 120       120   979     364.7 
 121       121   980     361.2 
 122       122   980     358.8 
 123       123   981     369.0 
 124       124   979     371.5 
 125       125   980     365.3 
 126       126   980     356.8 
 127       127   981     358.1 
 128       128   980     364.3 
 129       129   979     357.8 
 130       130   979     363.0 
 131       131   980     360.9 
 132       132   980     355.8 
 133       133   979     370.4 
 134       134   979     368.1 
 135       135   979     361.9 
 136       136   980     361.9 
 137       137   979     357.2 
 138       138   979     357.8 
 139       139   979     354.1 
 140       140   980     353.7 
 141       141   980     360.5 
 142       142   978     364.7 
 143       143   980     348.6 
 144       144   979     347.3 
 145       145   980     347.6 
 146       146   978     350.0 
 147       147   979     360.6 
 148       148   979     369.1 
 149       149   979     358.2 
 150       150   979     358.2 
 151       210  1000     337.0 
 152       270   997     350.4 
 153       330  1000     328.3 
 154       390   996     348.1 
 155       450   996     333.0 
 156       510   996     311.9 
 157       570   994     317.9 
 158       630   998     298.3 
 159       810   983     306.2 
 160       990   980     313.3 
 161      1170   985     297.8 
 162      1350   986     310.7 
 163      1530   981     310.2 
 164      2070   980     293.9 
 165      2691   973     308.0 
 166      3405   978     268.2 
 167      4226   978     284.3 
 168      5170   976     278.7 
 169      6256   975     275.2 
 170      7505   974     281.0 
 171      8941   977     277.7 
 172     10592   975     279.0 
 173     12491   973     248.0 
 174     14675   979     272.4 
 175     17187   975     268.0 
 176     20076   974     278.2 
 177     23398   977     273.6 
 178     27218   979     252.3 
 179     31611   980     252.4 
 180     36663   980     249.7 
 181     42473   977     271.6 
 182     49155   978     280.8 
 183     56839   980     256.1 
 184     65676   977     296.5 
 185     75839   981     296.5 
   1         1   156     348.3 
   2         2   817     353.7 
   3         3   953     353.6 
   4         4   969     335.1 
   5         5   972     347.1 
   6         6   973     366.9 
   7         7   973     373.8 
   8         8   977     347.3 
   9         9   974     390.8 
  10        10   975     372.6 
  11        11   976     391.4 
  12        12   977     409.8 
  13        13   977     401.2 
  14        14   977     406.7 
  15        15   977     434.0 
  16        16   978     410.7 
  17        17   980     407.5 
  18        18   977     408.4 
  19        19   978     394.3 
  20        20   979     403.5 
  21        21   980     397.3 
  22        22   979     380.3 
  23        23   979     382.0 
  24        24   979     364.0 
  25        25   980     371.8 
  26        26   980     369.0 
  27        27   978     384.1 
  28        28   980     370.1 
  29        29   980     369.0 
  30        30   980     374.1 
  31        31   980     349.3 
  32        32   980     367.0 
  33        33   980     357.8 
  34        34   981     361.5 
  35        35   981     365.3 
  36        36   980     376.9 
  37        37   981     385.3 
  38        38   980     370.7 
  39        39   981     371.4 
  40        40   980     378.2 
  41        41   981     366.3 
  42        42   980     378.9 
  43        43   982     384.2 
  44        44   981     390.1 
  45        45   980     377.2 
  46        46   981     380.9 
  47        47   982     394.4 
  48        48   982     390.4 
  49        49   981     377.5 
  50        50   981     385.0 
  51        51   980     387.8 
  52        52   983     402.5 
  53        53   981     394.5 
  54        54   981     386.0 
  55        55   981     389.4 
  56        56   982     380.9 
  57        57   982     388.3 
  58        58   981     405.4 
  59        59   981     390.1 
  60        60   980     383.0 
  61        61   983     395.4 
  62        62   981     385.7 
  63        63   981     389.7 
  64        64   981     402.7 
  65        65   982     392.1 
  66        66   982     392.1 
  67        67   981     379.5 
  68        68   981     373.8 
  69        69   981     385.7 
  70        70   983     377.8 
  71        71   980     393.5 
  72        72   981     375.8 
  73        73   981     387.7 
  74        74   982     384.2 
  75        75   981     385.3 
  76        76   980     371.1 
  77        77   980     388.4 
  78        78   982     387.0 
  79        79   982     376.4 
  80        80   980     373.5 
  81        81   981     387.0 
  82        82   980     386.1 
  83        83   982     373.4 
  84        84   980     384.0 
  85        85   980     363.9 
  86        86   980     389.8 
  87        87   982     378.1 
  88        88   981     385.3 
  89        89   980     367.7 
  90        90   981     393.5 
  91        91   981     372.1 
  92        92   982     377.1 
  93        93   980     374.8 
  94        94   980     379.3 
  95        95   980     368.4 
  96        96   982     384.6 
  97        97   981     363.6 
  98        98   980     375.2 
  99        99   980     390.1 
 100       100   980     381.3 
 101       101   981     375.5 
 102       102   980     379.9 
 103       103   980     382.0 
 104       104   980     382.3 
 105       105   982     380.2 
 106       106   980     367.0 
 107       107   980     374.5 
 108       108   980     377.9 
 109       109   981     356.8 
 110       110   980     378.9 
 111       111   980     385.7 
 112       112   980     378.2 
 113       113   980     382.0 
 114       114   981     353.4 
 115       115   980     398.3 
 116       116   980     376.5 
 117       117   980     404.8 
 118       118   980     377.2 
 119       119   980     357.5 
 120       120   979     373.9 
 121       121   980     376.9 
 122       122   980     382.7 
 123       123   981     387.4 
 124       124   979     371.5 
 125       125   980     378.2 
 126       126   980     381.6 
 127       127   981     374.4 
 128       128   980     395.9 
 129       129   979     374.9 
 130       130   979     372.8 
 131       131   980     370.7 
 132       132   980     360.5 
 133       133   979     368.7 
 134       134   979     376.9 
 135       135   979     378.6 
 136       136   980     368.7 
 137       137   979     370.4 
 138       138   979     375.9 
 139       139   979     373.2 
 140       140   980     379.6 
 141       141   980     376.2 
 142       142   978     387.2 
 143       143   980     378.2 
 144       144   979     377.9 
 145       145   980     383.3 
 146       146   978     373.6 
 147       147   979     375.2 
 148       148   979     380.3 
 149       149   979     383.4 
 150       150   979     383.4 
 151       210  1000     312.7 
 152       270   997     329.3 
 153       330  1000     351.7 
 154       390   996     356.4 
 155       450   996     335.0 
 156       510   996     359.4 
 157       570   994     318.6 
 158       630   998     322.6 
 159       810   983     350.3 
 160       990   980     341.8 
 161      1170   985     354.3 
 162      1350   986     340.4 
 163      1530   981     340.8 
 164      2070   980     346.9 
 165      2691   973     334.4 
 166      3405   978     360.3 
 167      4226   978     334.7 
 168      5170   976     363.4 
 169      6256   975     382.9 
 170      7505   974     330.9 
 171      8941   977     348.3 
 172     10592   975     329.6 
 173     12491   973     317.2 
 174     14675   979     323.8 
 175     17187   975     366.8 
 176     20076   974     301.8 
 177     23398   977     324.5 
 178     27218   979     326.5 
 179     31611   980     313.3 
 180     36663   980     305.1 
 181     42473   977     301.9 
 182     49155   978     320.4 
 183     56839   980     301.7 
 184     65676   977     291.4 
 185     75839   981     291.4 
