PC/104 FIRe Fluorometer 2.0.0
 5/14/2025     43147
LED Color:           blue
Gain:               1800
Sample Delay (msec):    10
Number Samples:   3
STF (usec):      150
STRP (#samples):       35
STRI (usec):       60
MTF (ms):        0
MTF (#samples):     0
MTRP (#samples):        0
MTRI (usec):      100
PQLen:     4
Ambient Light Source Power: Off
PAR (uMol/m^2/s):900.00
Comment:
Depth(m):   3.0
Temperature(C):  35.2
Battery(V):  16.43

         Time    EX   Fl-Yield 
DATA--------------------------
   0         0     0       0.0 
   1         1   156     106.8 
   2         2   817     153.0 
   3         3   953     189.9 
   4         4   969     229.4 
   5         5   972     217.4 
   6         6   973     181.6 
   7         7   973     202.5 
   8         8   977     237.8 
   9         9   974     223.5 
  10        10   975     200.7 
  11        11   976     218.2 
  12        12   977     243.3 
  13        13   977     220.7 
  14        14   977     223.8 
  15        15   977     223.5 
  16        16   978     214.4 
  17        17   980     250.3 
  18        18   977     244.6 
  19        19   978     220.9 
  20        20   979     256.4 
  21        21   980     245.9 
  22        22   979     255.7 
  23        23   979     239.7 
  24        24   979     248.2 
  25        25   980     237.4 
  26        26   980     256.1 
  27        27   978     196.7 
  28        28   980     308.2 
  29        29   980     284.7 
  30        30   980     268.4 
  31        31   980     209.2 
  32        32   980     226.9 
  33        33   980     211.6 
  34        34   981     284.1 
  35        35   981     266.7 
  36        36   980     263.6 
  37        37   981     292.6 
  38        38   980     280.3 
  39        39   981     292.2 
  40        40   980     260.2 
  41        41   981     268.8 
  42        42   980     318.0 
  43        43   982     304.5 
  44        44   981     273.2 
  45        45   980     279.6 
  46        46   981     298.0 
  47        47   982     317.4 
  48        48   982     259.3 
  49        49   981     308.2 
  50        50   981     306.5 
  51        51   980     297.3 
  52        52   983     294.7 
  53        53   981     318.4 
  54        54   981     265.4 
  55        55   981     303.8 
  56        56   982     302.8 
  57        57   982     298.7 
  58        58   981     289.5 
  59        59   981     336.7 
  60        60   980     306.1 
  61        61   983     295.0 
  62        62   981     298.3 
  63        63   981     320.4 
  64        64   981     337.8 
  65        65   982     292.9 
  66        66   982     267.5 
  67        67   981     287.5 
  68        68   981     349.6 
  69        69   981     281.0 
  70        70   983     321.5 
  71        71   980     279.6 
  72        72   981     334.4 
  73        73   981     260.6 
  74        74   982     281.1 
  75        75   981     286.8 
  76        76   980     328.9 
  77        77   980     263.6 
  78        78   982     282.4 
  79        79   982     248.1 
  80        80   980     234.7 
  81        81   981     289.5 
  82        82   980     244.9 
  83        83   982     283.8 
  84        84   980     285.7 
  85        85   980     253.4 
  86        86   980     274.8 
  87        87   982     249.5 
  88        88   981     268.1 
  89        89   980     258.2 
  90        90   981     256.2 
  91        91   981     259.3 
  92        92   982     281.1 
  93        93   980     277.2 
  94        94   980     274.8 
  95        95   980     265.3 
  96        96   982     236.6 
  97        97   981     233.4 
  98        98   980     259.5 
  99        99   980     286.1 
 100       100   980     281.0 
 101       101   981     247.0 
 102       102   980     285.0 
 103       103   980     249.7 
 104       104   980     258.5 
 105       105   982     281.4 
 106       106   980     280.6 
 107       107   980     268.4 
 108       108   980     251.4 
 109       109   981     233.4 
 110       110   980     271.1 
 111       111   980     278.9 
 112       112   980     283.0 
 113       113   980     236.4 
 114       114   981     261.6 
 115       115   980     301.7 
 116       116   980     263.3 
 117       117   980     270.4 
 118       118   980     266.3 
 119       119   980     271.8 
 120       120   979     211.4 
 121       121   980     254.1 
 122       122   980     273.8 
 123       123   981     283.0 
 124       124   979     250.3 
 125       125   980     262.6 
 126       126   980     251.0 
 127       127   981     284.1 
 128       128   980     271.1 
 129       129   979     239.4 
 130       130   979     252.6 
 131       131   980     285.4 
 132       132   980     276.5 
 133       133   979     283.3 
 134       134   979     227.1 
 135       135   979     288.7 
 136       136   980     253.1 
 137       137   979     229.5 
 138       138   979     287.4 
 139       139   979     306.1 
 140       140   980     278.9 
 141       141   980     240.1 
 142       142   978     295.5 
 143       143   980     268.7 
 144       144   979     258.8 
 145       145   980     299.3 
 146       146   978     279.8 
 147       147   979     297.9 
 148       148   979     281.2 
 149       149   979     294.9 
 150       150   979     294.9 
 151       210  1000     280.0 
 152       270   997     290.5 
 153       330  1000     291.7 
 154       390   996     263.1 
 155       450   996     212.9 
 156       510   996     336.3 
 157       570   994     195.8 
 158       630   998     375.8 
 159       810   983     218.4 
 160       990   980     310.2 
 161      1170   985     184.1 
 162      1350   986     167.3 
 163      1530   981     240.2 
 164      2070   980     248.0 
 165      2691   973     199.0 
 166      3405   978     189.8 
 167      4226   978     188.1 
 168      5170   976     202.2 
 169      6256   975     233.2 
 170      7505   974     178.0 
 171      8941   977     194.1 
 172     10592   975     187.4 
 173     12491   973     319.6 
 174     14675   979     182.5 
 175     17187   975     321.4 
 176     20076   974     111.6 
 177     23398   977     130.7 
 178     27218   979     306.8 
 179     31611   980     157.5 
 180     36663   980     251.4 
 181     42473   977     204.7 
 182     49155   978     201.4 
 183     56839   980     233.0 
 184     65676   977     194.1 
 185     75839   981     194.1 
   1         1   156     290.6 
   2         2   817     240.7 
   3         3   953     224.6 
   4         4   969     266.9 
   5         5   972     215.7 
   6         6   973     234.3 
   7         7   973     260.0 
   8         8   977     300.2 
   9         9   974     329.2 
  10        10   975     338.8 
  11        11   976     353.5 
  12        12   977     375.6 
  13        13   977     444.6 
  14        14   977     384.9 
  15        15   977     391.0 
  16        16   978     419.2 
  17        17   980     395.9 
  18        18   977     369.8 
  19        19   978     348.7 
  20        20   979     383.0 
  21        21   980     365.6 
  22        22   979     341.2 
  23        23   979     318.7 
  24        24   979     291.8 
  25        25   980     305.4 
  26        26   980     311.6 
  27        27   978     279.1 
  28        28   980     282.7 
  29        29   980     251.0 
  30        30   980     315.0 
  31        31   980     316.0 
  32        32   980     236.1 
  33        33   980     263.6 
  34        34   981     273.2 
  35        35   981     289.5 
  36        36   980     249.7 
  37        37   981     270.5 
  38        38   980     287.1 
  39        39   981     278.3 
  40        40   980     271.1 
  41        41   981     292.2 
  42        42   980     306.1 
  43        43   982     337.7 
  44        44   981     300.4 
  45        45   980     278.9 
  46        46   981     330.6 
  47        47   982     310.9 
  48        48   982     304.1 
  49        49   981     270.5 
  50        50   981     331.3 
  51        51   980     340.1 
  52        52   983     356.1 
  53        53   981     334.7 
  54        54   981     326.5 
  55        55   981     329.3 
  56        56   982     323.8 
  57        57   982     335.7 
  58        58   981     338.8 
  59        59   981     316.7 
  60        60   980     333.7 
  61        61   983     307.6 
  62        62   981     319.7 
  63        63   981     337.8 
  64        64   981     332.7 
  65        65   982     326.9 
  66        66   982     316.0 
  67        67   981     295.3 
  68        68   981     379.2 
  69        69   981     311.2 
  70        70   983     335.7 
  71        71   980     328.6 
  72        72   981     347.9 
  73        73   981     342.2 
  74        74   982     351.0 
  75        75   981     324.5 
  76        76   980     345.9 
  77        77   980     358.2 
  78        78   982     332.0 
  79        79   982     335.0 
  80        80   980     327.9 
  81        81   981     361.5 
  82        82   980     328.6 
  83        83   982     328.6 
  84        84   980     316.3 
  85        85   980     360.2 
  86        86   980     349.0 
  87        87   982     335.4 
  88        88   981     329.3 
  89        89   980     371.4 
  90        90   981     326.9 
  91        91   981     337.4 
  92        92   982     318.1 
  93        93   980     321.4 
  94        94   980     337.4 
  95        95   980     349.7 
  96        96   982     349.3 
  97        97   981     311.9 
  98        98   980     356.1 
  99        99   980     322.4 
 100       100   980     308.8 
 101       101   981     321.1 
 102       102   980     328.2 
 103       103   980     275.5 
 104       104   980     308.5 
 105       105   982     295.3 
 106       106   980     329.3 
 107       107   980     292.5 
 108       108   980     309.2 
 109       109   981     284.4 
 110       110   980     343.5 
 111       111   980     304.1 
 112       112   980     293.5 
 113       113   980     304.8 
 114       114   981     288.8 
 115       115   980     364.3 
 116       116   980     310.2 
 117       117   980     289.8 
 118       118   980     292.2 
 119       119   980     331.6 
 120       120   979     292.8 
 121       121   980     290.5 
 122       122   980     309.2 
 123       123   981     308.2 
 124       124   979     314.9 
 125       125   980     269.7 
 126       126   980     276.5 
 127       127   981     271.5 
 128       128   980     317.0 
 129       129   979     309.8 
 130       130   979     270.7 
 131       131   980     273.8 
 132       132   980     317.7 
 133       133   979     301.3 
 134       134   979     296.6 
 135       135   979     294.9 
 136       136   980     293.9 
 137       137   979     309.8 
 138       138   979     275.1 
 139       139   979     289.4 
 140       140   980     295.9 
 141       141   980     324.1 
 142       142   978     255.3 
 143       143   980     282.7 
 144       144   979     310.2 
 145       145   980     285.4 
 146       146   978     251.9 
 147       147   979     222.7 
 148       148   979     280.6 
 149       149   979     296.6 
 150       150   979     296.6 
 151       210  1000     297.3 
 152       270   997     317.6 
 153       330  1000     328.0 
 154       390   996     274.4 
 155       450   996     300.5 
 156       510   996     240.3 
 157       570   994     274.6 
 158       630   998     281.2 
 159       810   983     243.5 
 160       990   980     248.0 
 161      1170   985     306.9 
 162      1350   986     263.7 
 163      1530   981     358.8 
 164      2070   980     252.0 
 165      2691   973     234.0 
 166      3405   978     266.2 
 167      4226   978     286.3 
 168      5170   976     265.7 
 169      6256   975     307.4 
 170      7505   974     319.3 
 171      8941   977     340.2 
 172     10592   975     367.9 
 173     12491   973     228.8 
 174     14675   979     296.2 
 175     17187   975     300.2 
 176     20076   974     194.7 
 177     23398   977     264.1 
 178     27218   979     261.8 
 179     31611   980     206.1 
 180     36663   980     262.6 
 181     42473   977     255.2 
 182     49155   978     242.7 
 183     56839   980     275.5 
 184     65676   977     280.8 
 185     75839   981     280.8 
