PC/104 FIRe Fluorometer 2.0.0
 5/14/2025     37332
LED Color:           blue
Gain:               1600
Sample Delay (msec):    10
Number Samples:   3
STF (usec):      150
STRP (#samples):       35
STRI (usec):       60
MTF (ms):        0
MTF (#samples):     0
MTRP (#samples):        0
MTRI (usec):      100
PQLen:     4
Ambient Light Source Power: Off
PAR (uMol/m^2/s):654.08
Comment:
Depth(m):   2.2
Temperature(C):  34.5
Battery(V):  16.46

         Time    EX   Fl-Yield 
DATA--------------------------
   0         0     0       0.0 
   1         1   156     245.7 
   2         2   817     318.6 
   3         3   953     334.0 
   4         4   969     362.2 
   5         5   972     349.5 
   6         6   973     353.5 
   7         7   973     370.3 
   8         8   977     362.3 
   9         9   974     343.3 
  10        10   975     383.9 
  11        11   976     378.8 
  12        12   977     388.3 
  13        13   977     359.6 
  14        14   977     371.2 
  15        15   977     378.0 
  16        16   978     389.6 
  17        17   980     388.4 
  18        18   977     380.4 
  19        19   978     414.5 
  20        20   979     412.0 
  21        21   980     404.1 
  22        22   979     389.5 
  23        23   979     411.3 
  24        24   979     415.7 
  25        25   980     399.7 
  26        26   980     387.4 
  27        27   978     404.6 
  28        28   980     445.6 
  29        29   980     439.8 
  30        30   980     399.0 
  31        31   980     434.7 
  32        32   980     456.5 
  33        33   980     426.5 
  34        34   981     430.2 
  35        35   981     434.3 
  36        36   980     465.0 
  37        37   981     452.3 
  38        38   980     442.5 
  39        39   981     443.4 
  40        40   980     458.8 
  41        41   981     439.7 
  42        42   980     438.8 
  43        43   982     423.6 
  44        44   981     462.5 
  45        45   980     468.7 
  46        46   981     466.9 
  47        47   982     433.5 
  48        48   982     451.8 
  49        49   981     472.0 
  50        50   981     473.0 
  51        51   980     440.1 
  52        52   983     457.1 
  53        53   981     483.2 
  54        54   981     470.9 
  55        55   981     455.7 
  56        56   982     446.7 
  57        57   982     477.9 
  58        58   981     457.4 
  59        59   981     454.3 
  60        60   980     466.7 
  61        61   983     473.4 
  62        62   981     470.3 
  63        63   981     459.4 
  64        64   981     455.3 
  65        65   982     455.2 
  66        66   982     474.5 
  67        67   981     456.3 
  68        68   981     475.0 
  69        69   981     470.6 
  70        70   983     477.4 
  71        71   980     485.0 
  72        72   981     460.8 
  73        73   981     476.7 
  74        74   982     478.6 
  75        75   981     484.5 
  76        76   980     456.8 
  77        77   980     474.1 
  78        78   982     461.6 
  79        79   982     472.2 
  80        80   980     469.4 
  81        81   981     457.7 
  82        82   980     454.1 
  83        83   982     482.3 
  84        84   980     451.4 
  85        85   980     455.1 
  86        86   980     435.4 
  87        87   982     468.1 
  88        88   981     462.1 
  89        89   980     442.5 
  90        90   981     446.1 
  91        91   981     487.6 
  92        92   982     450.4 
  93        93   980     456.1 
  94        94   980     464.6 
  95        95   980     458.2 
  96        96   982     469.5 
  97        97   981     454.0 
  98        98   980     476.5 
  99        99   980     478.2 
 100       100   980     472.1 
 101       101   981     459.7 
 102       102   980     463.3 
 103       103   980     476.9 
 104       104   980     489.8 
 105       105   982     462.3 
 106       106   980     466.7 
 107       107   980     464.3 
 108       108   980     484.4 
 109       109   981     493.4 
 110       110   980     465.0 
 111       111   980     445.2 
 112       112   980     464.3 
 113       113   980     479.3 
 114       114   981     457.7 
 115       115   980     457.1 
 116       116   980     462.2 
 117       117   980     471.1 
 118       118   980     485.4 
 119       119   980     451.4 
 120       120   979     459.7 
 121       121   980     509.9 
 122       122   980     484.0 
 123       123   981     443.8 
 124       124   979     448.4 
 125       125   980     480.3 
 126       126   980     454.1 
 127       127   981     466.9 
 128       128   980     442.2 
 129       129   979     471.6 
 130       130   979     472.3 
 131       131   980     458.5 
 132       132   980     457.8 
 133       133   979     465.1 
 134       134   979     471.6 
 135       135   979     459.3 
 136       136   980     448.3 
 137       137   979     458.6 
 138       138   979     483.5 
 139       139   979     464.1 
 140       140   980     457.1 
 141       141   980     449.0 
 142       142   978     471.0 
 143       143   980     454.4 
 144       144   979     460.0 
 145       145   980     461.6 
 146       146   978     477.8 
 147       147   979     482.1 
 148       148   979     484.5 
 149       149   979     490.6 
 150       150   979     490.6 
 151       210  1000     462.7 
 152       270   997     468.1 
 153       330  1000     410.7 
 154       390   996     426.4 
 155       450   996     466.2 
 156       510   996     437.8 
 157       570   994     400.1 
 158       630   998     414.2 
 159       810   983     423.5 
 160       990   980     367.3 
 161      1170   985     386.1 
 162      1350   986     398.6 
 163      1530   981     386.0 
 164      2070   980     353.1 
 165      2691   973     365.5 
 166      3405   978     360.6 
 167      4226   978     388.5 
 168      5170   976     380.5 
 169      6256   975     316.2 
 170      7505   974     333.0 
 171      8941   977     326.9 
 172     10592   975     311.8 
 173     12491   973     392.9 
 174     14675   979     364.3 
 175     17187   975     336.4 
 176     20076   974     324.8 
 177     23398   977     290.7 
 178     27218   979     369.4 
 179     31611   980     322.8 
 180     36663   980     363.3 
 181     42473   977     320.7 
 182     49155   978     345.3 
 183     56839   980     373.8 
 184     65676   977     344.3 
 185     75839   981     344.3 
   1         1   156     318.4 
   2         2   817     441.5 
   3         3   953     448.8 
   4         4   969     384.6 
   5         5   972     384.1 
   6         6   973     427.9 
   7         7   973     450.8 
   8         8   977     449.7 
   9         9   974     453.1 
  10        10   975     470.1 
  11        11   976     515.0 
  12        12   977     516.5 
  13        13   977     553.7 
  14        14   977     511.1 
  15        15   977     551.3 
  16        16   978     535.4 
  17        17   980     536.7 
  18        18   977     531.6 
  19        19   978     530.0 
  20        20   979     526.0 
  21        21   980     520.1 
  22        22   979     484.5 
  23        23   979     486.6 
  24        24   979     511.1 
  25        25   980     500.3 
  26        26   980     482.3 
  27        27   978     469.0 
  28        28   980     501.4 
  29        29   980     489.1 
  30        30   980     463.6 
  31        31   980     468.0 
  32        32   980     480.3 
  33        33   980     465.6 
  34        34   981     463.5 
  35        35   981     461.8 
  36        36   980     471.1 
  37        37   981     498.8 
  38        38   980     478.2 
  39        39   981     457.0 
  40        40   980     476.9 
  41        41   981     486.9 
  42        42   980     457.1 
  43        43   982     439.9 
  44        44   981     468.2 
  45        45   980     475.2 
  46        46   981     467.6 
  47        47   982     485.1 
  48        48   982     473.5 
  49        49   981     479.4 
  50        50   981     480.5 
  51        51   980     461.2 
  52        52   983     474.7 
  53        53   981     494.4 
  54        54   981     490.3 
  55        55   981     463.5 
  56        56   982     444.0 
  57        57   982     474.9 
  58        58   981     493.4 
  59        59   981     503.2 
  60        60   980     468.4 
  61        61   983     455.1 
  62        62   981     514.4 
  63        63   981     480.8 
  64        64   981     456.3 
  65        65   982     464.7 
  66        66   982     469.5 
  67        67   981     534.1 
  68        68   981     464.5 
  69        69   981     445.8 
  70        70   983     484.6 
  71        71   980     488.4 
  72        72   981     452.3 
  73        73   981     460.4 
  74        74   982     463.0 
  75        75   981     482.2 
  76        76   980     455.8 
  77        77   980     458.2 
  78        78   982     464.0 
  79        79   982     474.5 
  80        80   980     477.6 
  81        81   981     448.5 
  82        82   980     459.2 
  83        83   982     489.1 
  84        84   980     466.3 
  85        85   980     464.3 
  86        86   980     435.0 
  87        87   982     447.4 
  88        88   981     462.5 
  89        89   980     445.9 
  90        90   981     424.4 
  91        91   981     468.2 
  92        92   982     484.7 
  93        93   980     424.1 
  94        94   980     452.4 
  95        95   980     458.8 
  96        96   982     462.0 
  97        97   981     479.1 
  98        98   980     453.1 
  99        99   980     445.2 
 100       100   980     456.1 
 101       101   981     479.1 
 102       102   980     456.8 
 103       103   980     453.1 
 104       104   980     455.4 
 105       105   982     488.1 
 106       106   980     449.7 
 107       107   980     445.2 
 108       108   980     463.3 
 109       109   981     462.1 
 110       110   980     435.4 
 111       111   980     423.5 
 112       112   980     445.9 
 113       113   980     448.3 
 114       114   981     460.8 
 115       115   980     466.3 
 116       116   980     444.2 
 117       117   980     488.4 
 118       118   980     452.0 
 119       119   980     457.5 
 120       120   979     451.5 
 121       121   980     474.8 
 122       122   980     489.1 
 123       123   981     441.0 
 124       124   979     459.7 
 125       125   980     474.5 
 126       126   980     489.1 
 127       127   981     485.2 
 128       128   980     433.7 
 129       129   979     460.3 
 130       130   979     491.7 
 131       131   980     481.6 
 132       132   980     452.4 
 133       133   979     461.0 
 134       134   979     482.5 
 135       135   979     506.6 
 136       136   980     480.6 
 137       137   979     475.0 
 138       138   979     496.8 
 139       139   979     503.6 
 140       140   980     501.4 
 141       141   980     478.9 
 142       142   978     501.0 
 143       143   980     520.7 
 144       144   979     499.1 
 145       145   980     476.9 
 146       146   978     488.4 
 147       147   979     510.7 
 148       148   979     523.7 
 149       149   979     507.3 
 150       150   979     507.3 
 151       210  1000     316.3 
 152       270   997     421.9 
 153       330  1000     356.0 
 154       390   996     470.2 
 155       450   996     425.7 
 156       510   996     462.9 
 157       570   994     423.5 
 158       630   998     462.3 
 159       810   983     407.6 
 160       990   980     446.6 
 161      1170   985     378.3 
 162      1350   986     432.7 
 163      1530   981     373.4 
 164      2070   980     410.2 
 165      2691   973     336.8 
 166      3405   978     395.0 
 167      4226   978     411.7 
 168      5170   976     338.8 
 169      6256   975     359.7 
 170      7505   974     321.4 
 171      8941   977     340.5 
 172     10592   975     451.3 
 173     12491   973     377.9 
 174     14675   979     407.6 
 175     17187   975     412.0 
 176     20076   974     385.4 
 177     23398   977     354.8 
 178     27218   979     338.8 
 179     31611   980     378.9 
 180     36663   980     390.5 
 181     42473   977     395.8 
 182     49155   978     351.1 
 183     56839   980     329.9 
 184     65676   977     360.3 
 185     75839   981     360.3 
