PC/104 FIRe Fluorometer 2.0.0
 5/14/2025     37267
LED Color:           blue
Gain:               1800
Sample Delay (msec):    10
Number Samples:   3
STF (usec):      150
STRP (#samples):       35
STRI (usec):       60
MTF (ms):        0
MTF (#samples):     0
MTRP (#samples):        0
MTRI (usec):      100
PQLen:     4
Ambient Light Source Power: Off
PAR (uMol/m^2/s):900.00
Comment:
Depth(m):   2.2
Temperature(C):  34.9
Battery(V):  16.49

         Time    EX   Fl-Yield 
DATA--------------------------
   0         0     0       0.0 
   1         1   156     198.7 
   2         2   817     293.8 
   3         3   953     329.8 
   4         4   969     365.7 
   5         5   972     301.8 
   6         6   973     285.7 
   7         7   973     326.5 
   8         8   977     365.7 
   9         9   974     350.1 
  10        10   975     286.5 
  11        11   976     361.3 
  12        12   977     381.4 
  13        13   977     370.5 
  14        14   977     306.4 
  15        15   977     366.1 
  16        16   978     418.2 
  17        17   980     376.2 
  18        18   977     312.5 
  19        19   978     366.4 
  20        20   979     391.9 
  21        21   980     393.5 
  22        22   979     380.7 
  23        23   979     371.8 
  24        24   979     419.1 
  25        25   980     454.4 
  26        26   980     384.0 
  27        27   978     386.5 
  28        28   980     415.6 
  29        29   980     452.0 
  30        30   980     419.0 
  31        31   980     388.8 
  32        32   980     420.1 
  33        33   980     423.8 
  34        34   981     448.9 
  35        35   981     412.8 
  36        36   980     402.4 
  37        37   981     481.8 
  38        38   980     431.0 
  39        39   981     477.1 
  40        40   980     449.7 
  41        41   981     462.1 
  42        42   980     465.3 
  43        43   982     425.3 
  44        44   981     431.2 
  45        45   980     475.9 
  46        46   981     476.7 
  47        47   982     447.4 
  48        48   982     434.1 
  49        49   981     477.1 
  50        50   981     497.1 
  51        51   980     462.2 
  52        52   983     429.3 
  53        53   981     460.1 
  54        54   981     472.6 
  55        55   981     507.0 
  56        56   982     440.9 
  57        57   982     472.5 
  58        58   981     491.3 
  59        59   981     516.1 
  60        60   980     483.0 
  61        61   983     458.1 
  62        62   981     511.7 
  63        63   981     494.4 
  64        64   981     480.8 
  65        65   982     440.9 
  66        66   982     458.2 
  67        67   981     519.5 
  68        68   981     501.2 
  69        69   981     438.0 
  70        70   983     502.5 
  71        71   980     544.9 
  72        72   981     524.0 
  73        73   981     457.4 
  74        74   982     457.6 
  75        75   981     521.2 
  76        76   980     513.6 
  77        77   980     491.2 
  78        78   982     457.9 
  79        79   982     517.3 
  80        80   980     497.6 
  81        81   981     460.1 
  82        82   980     452.7 
  83        83   982     508.8 
  84        84   980     498.3 
  85        85   980     469.7 
  86        86   980     476.2 
  87        87   982     472.2 
  88        88   981     493.0 
  89        89   980     493.9 
  90        90   981     437.3 
  91        91   981     456.0 
  92        92   982     500.0 
  93        93   980     523.8 
  94        94   980     478.2 
  95        95   980     455.8 
  96        96   982     481.0 
  97        97   981     524.3 
  98        98   980     464.6 
  99        99   980     424.1 
 100       100   980     473.8 
 101       101   981     484.2 
 102       102   980     476.9 
 103       103   980     440.1 
 104       104   980     467.7 
 105       105   982     484.0 
 106       106   980     460.2 
 107       107   980     448.3 
 108       108   980     432.7 
 109       109   981     457.0 
 110       110   980     490.1 
 111       111   980     399.3 
 112       112   980     428.9 
 113       113   980     466.3 
 114       114   981     471.6 
 115       115   980     458.2 
 116       116   980     442.5 
 117       117   980     474.8 
 118       118   980     467.7 
 119       119   980     473.1 
 120       120   979     427.3 
 121       121   980     443.5 
 122       122   980     478.6 
 123       123   981     450.9 
 124       124   979     468.5 
 125       125   980     465.6 
 126       126   980     513.9 
 127       127   981     479.1 
 128       128   980     429.6 
 129       129   979     442.3 
 130       130   979     441.9 
 131       131   980     492.2 
 132       132   980     457.1 
 133       133   979     420.8 
 134       134   979     486.2 
 135       135   979     476.7 
 136       136   980     445.9 
 137       137   979     419.5 
 138       138   979     437.9 
 139       139   979     495.7 
 140       140   980     454.8 
 141       141   980     462.2 
 142       142   978     471.0 
 143       143   980     499.0 
 144       144   979     468.5 
 145       145   980     447.3 
 146       146   978     424.0 
 147       147   979     494.0 
 148       148   979     485.9 
 149       149   979     473.3 
 150       150   979     473.3 
 151       210  1000     502.7 
 152       270   997     475.8 
 153       330  1000     369.7 
 154       390   996     479.3 
 155       450   996     448.5 
 156       510   996     501.7 
 157       570   994     438.0 
 158       630   998     355.4 
 159       810   983     464.6 
 160       990   980     319.0 
 161      1170   985     401.7 
 162      1350   986     330.6 
 163      1530   981     495.1 
 164      2070   980     371.4 
 165      2691   973     307.3 
 166      3405   978     404.9 
 167      4226   978     380.0 
 168      5170   976     296.8 
 169      6256   975     428.7 
 170      7505   974     379.5 
 171      8941   977     312.5 
 172     10592   975     345.0 
 173     12491   973     295.0 
 174     14675   979     327.2 
 175     17187   975     320.0 
 176     20076   974     396.3 
 177     23398   977     328.6 
 178     27218   979     379.0 
 179     31611   980     298.3 
 180     36663   980     356.5 
 181     42473   977     384.2 
 182     49155   978     334.7 
 183     56839   980     370.1 
 184     65676   977     253.5 
 185     75839   981     253.5 
   1         1   156     730.8 
   2         2   817     465.9 
   3         3   953     402.6 
   4         4   969     412.5 
   5         5   972     404.3 
   6         6   973     463.5 
   7         7   973     469.7 
   8         8   977     442.9 
   9         9   974     501.0 
  10        10   975     551.1 
  11        11   976     570.7 
  12        12   977     562.6 
  13        13   977     564.7 
  14        14   977     611.4 
  15        15   977     605.9 
  16        16   978     563.4 
  17        17   980     572.8 
  18        18   977     566.0 
  19        19   978     622.4 
  20        20   979     496.1 
  21        21   980     506.8 
  22        22   979     505.3 
  23        23   979     532.2 
  24        24   979     476.3 
  25        25   980     422.4 
  26        26   980     441.8 
  27        27   978     451.9 
  28        28   980     489.8 
  29        29   980     457.1 
  30        30   980     409.9 
  31        31   980     498.3 
  32        32   980     473.1 
  33        33   980     428.2 
  34        34   981     446.5 
  35        35   981     502.5 
  36        36   980     511.6 
  37        37   981     456.0 
  38        38   980     444.6 
  39        39   981     492.4 
  40        40   980     480.3 
  41        41   981     523.6 
  42        42   980     446.3 
  43        43   982     473.5 
  44        44   981     455.7 
  45        45   980     535.4 
  46        46   981     473.7 
  47        47   982     490.5 
  48        48   982     498.3 
  49        49   981     532.8 
  50        50   981     487.9 
  51        51   980     477.2 
  52        52   983     522.2 
  53        53   981     545.4 
  54        54   981     481.1 
  55        55   981     446.5 
  56        56   982     455.2 
  57        57   982     498.6 
  58        58   981     530.1 
  59        59   981     425.1 
  60        60   980     461.2 
  61        61   983     559.5 
  62        62   981     527.7 
  63        63   981     476.7 
  64        64   981     469.2 
  65        65   982     504.4 
  66        66   982     488.5 
  67        67   981     421.0 
  68        68   981     473.7 
  69        69   981     512.7 
  70        70   983     490.3 
  71        71   980     458.5 
  72        72   981     403.0 
  73        73   981     492.0 
  74        74   982     512.2 
  75        75   981     472.0 
  76        76   980     417.0 
  77        77   980     448.3 
  78        78   982     474.5 
  79        79   982     463.3 
  80        80   980     430.3 
  81        81   981     442.4 
  82        82   980     451.0 
  83        83   982     474.5 
  84        84   980     369.7 
  85        85   980     451.4 
  86        86   980     466.3 
  87        87   982     507.5 
  88        88   981     427.5 
  89        89   980     410.9 
  90        90   981     467.9 
  91        91   981     478.1 
  92        92   982     483.4 
  93        93   980     424.1 
  94        94   980     468.0 
  95        95   980     463.3 
  96        96   982     457.6 
  97        97   981     457.0 
  98        98   980     478.2 
  99        99   980     528.6 
 100       100   980     453.1 
 101       101   981     425.1 
 102       102   980     426.2 
 103       103   980     490.1 
 104       104   980     465.3 
 105       105   982     454.2 
 106       106   980     423.8 
 107       107   980     490.1 
 108       108   980     481.3 
 109       109   981     469.6 
 110       110   980     437.1 
 111       111   980     459.5 
 112       112   980     494.2 
 113       113   980     466.7 
 114       114   981     432.9 
 115       115   980     438.8 
 116       116   980     493.2 
 117       117   980     469.0 
 118       118   980     449.3 
 119       119   980     442.9 
 120       120   979     493.0 
 121       121   980     496.3 
 122       122   980     454.4 
 123       123   981     459.4 
 124       124   979     501.9 
 125       125   980     502.4 
 126       126   980     494.2 
 127       127   981     489.6 
 128       128   980     504.1 
 129       129   979     505.3 
 130       130   979     487.6 
 131       131   980     496.9 
 132       132   980     451.7 
 133       133   979     537.3 
 134       134   979     489.6 
 135       135   979     481.1 
 136       136   980     467.7 
 137       137   979     488.9 
 138       138   979     523.3 
 139       139   979     474.3 
 140       140   980     486.1 
 141       141   980     490.5 
 142       142   978     544.6 
 143       143   980     479.3 
 144       144   979     427.6 
 145       145   980     483.7 
 146       146   978     539.5 
 147       147   979     470.9 
 148       148   979     451.8 
 149       149   979     469.2 
 150       150   979     469.2 
 151       210  1000     230.3 
 152       270   997     418.6 
 153       330  1000     495.7 
 154       390   996     457.8 
 155       450   996     498.0 
 156       510   996     411.0 
 157       570   994     271.3 
 158       630   998     429.2 
 159       810   983     450.3 
 160       990   980     418.4 
 161      1170   985     420.3 
 162      1350   986     310.7 
 163      1530   981     551.8 
 164      2070   980     353.7 
 165      2691   973     419.7 
 166      3405   978     346.6 
 167      4226   978     375.3 
 168      5170   976     379.1 
 169      6256   975     361.4 
 170      7505   974     371.7 
 171      8941   977     280.1 
 172     10592   975     333.7 
 173     12491   973     412.8 
 174     14675   979     458.6 
 175     17187   975     412.3 
 176     20076   974     346.0 
 177     23398   977     384.5 
 178     27218   979     320.4 
 179     31611   980     310.9 
 180     36663   980     354.1 
 181     42473   977     400.2 
 182     49155   978     348.3 
 183     56839   980     280.3 
 184     65676   977     361.3 
 185     75839   981     361.3 
