PC/104 FIRe Fluorometer 2.0.0
 5/14/2025     39141
LED Color:           blue
Gain:               1400
Sample Delay (msec):    10
Number Samples:   3
STF (usec):      150
STRP (#samples):       35
STRI (usec):       60
MTF (ms):        0
MTF (#samples):     0
MTRP (#samples):        0
MTRI (usec):      100
PQLen:     4
Ambient Light Source Power: Off
PAR (uMol/m^2/s):638.82
Comment:
Depth(m):   1.9
Temperature(C):  33.1
Battery(V):  16.52

         Time    EX   Fl-Yield 
DATA--------------------------
   0         0     0       0.0 
   1         1   156     134.6 
   2         2   817     208.1 
   3         3   953     230.8 
   4         4   969     243.6 
   5         5   972     247.9 
   6         6   973     229.9 
   7         7   973     252.1 
   8         8   977     250.4 
   9         9   974     255.3 
  10        10   975     242.7 
  11        11   976     251.7 
  12        12   977     240.5 
  13        13   977     258.3 
  14        14   977     258.6 
  15        15   977     253.2 
  16        16   978     264.5 
  17        17   980     278.9 
  18        18   977     264.8 
  19        19   978     253.6 
  20        20   979     264.6 
  21        21   980     284.7 
  22        22   979     288.0 
  23        23   979     246.2 
  24        24   979     282.6 
  25        25   980     282.0 
  26        26   980     275.2 
  27        27   978     275.1 
  28        28   980     278.2 
  29        29   980     273.8 
  30        30   980     286.4 
  31        31   980     275.9 
  32        32   980     277.9 
  33        33   980     288.4 
  34        34   981     297.7 
  35        35   981     288.5 
  36        36   980     282.7 
  37        37   981     293.9 
  38        38   980     293.9 
  39        39   981     288.1 
  40        40   980     276.9 
  41        41   981     282.0 
  42        42   980     291.2 
  43        43   982     285.1 
  44        44   981     279.3 
  45        45   980     277.2 
  46        46   981     300.0 
  47        47   982     294.6 
  48        48   982     276.0 
  49        49   981     268.8 
  50        50   981     294.6 
  51        51   980     306.8 
  52        52   983     293.3 
  53        53   981     285.8 
  54        54   981     298.3 
  55        55   981     295.3 
  56        56   982     298.4 
  57        57   982     279.4 
  58        58   981     297.0 
  59        59   981     309.2 
  60        60   980     290.8 
  61        61   983     286.5 
  62        62   981     274.9 
  63        63   981     300.0 
  64        64   981     272.2 
  65        65   982     284.8 
  66        66   982     284.5 
  67        67   981     281.3 
  68        68   981     285.8 
  69        69   981     272.9 
  70        70   983     278.1 
  71        71   980     291.5 
  72        72   981     302.4 
  73        73   981     311.2 
  74        74   982     281.1 
  75        75   981     301.1 
  76        76   980     299.3 
  77        77   980     296.6 
  78        78   982     285.5 
  79        79   982     296.7 
  80        80   980     292.9 
  81        81   981     296.6 
  82        82   980     290.8 
  83        83   982     287.5 
  84        84   980     300.3 
  85        85   980     303.7 
  86        86   980     281.3 
  87        87   982     285.5 
  88        88   981     301.7 
  89        89   980     307.1 
  90        90   981     308.5 
  91        91   981     294.6 
  92        92   982     297.7 
  93        93   980     311.2 
  94        94   980     302.0 
  95        95   980     294.9 
  96        96   982     291.2 
  97        97   981     309.2 
  98        98   980     308.8 
  99        99   980     301.4 
 100       100   980     299.7 
 101       101   981     320.1 
 102       102   980     310.2 
 103       103   980     298.3 
 104       104   980     304.4 
 105       105   982     318.4 
 106       106   980     322.1 
 107       107   980     316.3 
 108       108   980     306.5 
 109       109   981     314.3 
 110       110   980     310.5 
 111       111   980     312.9 
 112       112   980     288.8 
 113       113   980     301.7 
 114       114   981     318.7 
 115       115   980     320.4 
 116       116   980     307.8 
 117       117   980     288.4 
 118       118   980     313.6 
 119       119   980     322.4 
 120       120   979     313.2 
 121       121   980     307.1 
 122       122   980     309.2 
 123       123   981     304.5 
 124       124   979     310.5 
 125       125   980     302.4 
 126       126   980     303.7 
 127       127   981     327.6 
 128       128   980     308.2 
 129       129   979     288.0 
 130       130   979     308.1 
 131       131   980     318.7 
 132       132   980     315.6 
 133       133   979     300.3 
 134       134   979     294.9 
 135       135   979     312.9 
 136       136   980     320.1 
 137       137   979     317.7 
 138       138   979     287.7 
 139       139   979     309.2 
 140       140   980     305.8 
 141       141   980     307.5 
 142       142   978     297.2 
 143       143   980     318.4 
 144       144   979     322.8 
 145       145   980     299.7 
 146       146   978     301.6 
 147       147   979     300.0 
 148       148   979     319.4 
 149       149   979     312.9 
 150       150   979     312.9 
 151       210  1000     309.3 
 152       270   997     302.2 
 153       330  1000     294.3 
 154       390   996     285.8 
 155       450   996     276.8 
 156       510   996     270.7 
 157       570   994     288.4 
 158       630   998     308.3 
 159       810   983     265.2 
 160       990   980     258.2 
 161      1170   985     258.2 
 162      1350   986     227.5 
 163      1530   981     251.1 
 164      2070   980     222.4 
 165      2691   973     247.0 
 166      3405   978     241.6 
 167      4226   978     190.9 
 168      5170   976     259.6 
 169      6256   975     226.0 
 170      7505   974     201.2 
 171      8941   977     246.7 
 172     10592   975     216.1 
 173     12491   973     252.1 
 174     14675   979     225.4 
 175     17187   975     248.9 
 176     20076   974     198.5 
 177     23398   977     235.4 
 178     27218   979     204.6 
 179     31611   980     203.1 
 180     36663   980     198.6 
 181     42473   977     238.5 
 182     49155   978     248.1 
 183     56839   980     196.9 
 184     65676   977     217.3 
 185     75839   981     217.3 
   1         1   156     316.2 
   2         2   817     282.7 
   3         3   953     272.5 
   4         4   969     286.2 
   5         5   972     276.1 
   6         6   973     289.8 
   7         7   973     283.7 
   8         8   977     281.5 
   9         9   974     278.2 
  10        10   975     311.5 
  11        11   976     300.5 
  12        12   977     334.7 
  13        13   977     321.7 
  14        14   977     313.9 
  15        15   977     317.6 
  16        16   978     316.6 
  17        17   980     334.7 
  18        18   977     330.9 
  19        19   978     320.0 
  20        20   979     321.8 
  21        21   980     317.3 
  22        22   979     309.2 
  23        23   979     301.7 
  24        24   979     286.7 
  25        25   980     303.1 
  26        26   980     299.0 
  27        27   978     297.5 
  28        28   980     292.2 
  29        29   980     310.2 
  30        30   980     306.1 
  31        31   980     294.6 
  32        32   980     297.3 
  33        33   980     301.7 
  34        34   981     294.9 
  35        35   981     308.9 
  36        36   980     294.9 
  37        37   981     301.1 
  38        38   980     304.4 
  39        39   981     309.5 
  40        40   980     311.6 
  41        41   981     304.1 
  42        42   980     296.9 
  43        43   982     320.4 
  44        44   981     311.9 
  45        45   980     311.9 
  46        46   981     330.3 
  47        47   982     325.2 
  48        48   982     310.9 
  49        49   981     301.1 
  50        50   981     317.4 
  51        51   980     331.3 
  52        52   983     335.4 
  53        53   981     316.7 
  54        54   981     320.1 
  55        55   981     330.3 
  56        56   982     320.1 
  57        57   982     317.7 
  58        58   981     339.4 
  59        59   981     321.4 
  60        60   980     334.7 
  61        61   983     322.5 
  62        62   981     315.7 
  63        63   981     328.6 
  64        64   981     360.2 
  65        65   982     315.3 
  66        66   982     324.5 
  67        67   981     316.3 
  68        68   981     327.2 
  69        69   981     324.5 
  70        70   983     302.1 
  71        71   980     299.3 
  72        72   981     321.1 
  73        73   981     337.8 
  74        74   982     313.3 
  75        75   981     334.0 
  76        76   980     350.0 
  77        77   980     327.6 
  78        78   982     302.8 
  79        79   982     299.7 
  80        80   980     315.6 
  81        81   981     337.8 
  82        82   980     305.1 
  83        83   982     310.9 
  84        84   980     304.4 
  85        85   980     324.5 
  86        86   980     311.6 
  87        87   982     320.1 
  88        88   981     309.5 
  89        89   980     321.1 
  90        90   981     328.6 
  91        91   981     311.2 
  92        92   982     309.9 
  93        93   980     325.2 
  94        94   980     320.4 
  95        95   980     314.6 
  96        96   982     310.3 
  97        97   981     321.8 
  98        98   980     323.5 
  99        99   980     307.5 
 100       100   980     297.3 
 101       101   981     295.3 
 102       102   980     327.6 
 103       103   980     322.8 
 104       104   980     312.2 
 105       105   982     307.2 
 106       106   980     315.3 
 107       107   980     314.3 
 108       108   980     302.0 
 109       109   981     296.6 
 110       110   980     308.8 
 111       111   980     323.8 
 112       112   980     305.1 
 113       113   980     291.5 
 114       114   981     306.8 
 115       115   980     315.3 
 116       116   980     297.3 
 117       117   980     297.3 
 118       118   980     309.9 
 119       119   980     316.3 
 120       120   979     306.8 
 121       121   980     288.4 
 122       122   980     295.9 
 123       123   981     316.0 
 124       124   979     308.1 
 125       125   980     295.9 
 126       126   980     292.9 
 127       127   981     324.2 
 128       128   980     302.4 
 129       129   979     287.4 
 130       130   979     290.4 
 131       131   980     303.4 
 132       132   980     310.2 
 133       133   979     312.9 
 134       134   979     293.8 
 135       135   979     299.6 
 136       136   980     307.8 
 137       137   979     310.9 
 138       138   979     295.9 
 139       139   979     302.0 
 140       140   980     319.0 
 141       141   980     313.6 
 142       142   978     292.4 
 143       143   980     310.9 
 144       144   979     315.3 
 145       145   980     314.6 
 146       146   978     305.0 
 147       147   979     296.6 
 148       148   979     313.2 
 149       149   979     319.7 
 150       150   979     319.7 
 151       210  1000     296.0 
 152       270   997     309.3 
 153       330  1000     304.3 
 154       390   996     280.1 
 155       450   996     267.4 
 156       510   996     259.0 
 157       570   994     262.9 
 158       630   998     271.9 
 159       810   983     278.4 
 160       990   980     241.8 
 161      1170   985     271.4 
 162      1350   986     274.5 
 163      1530   981     287.5 
 164      2070   980     256.5 
 165      2691   973     281.6 
 166      3405   978     255.6 
 167      4226   978     260.1 
 168      5170   976     241.8 
 169      6256   975     235.2 
 170      7505   974     227.9 
 171      8941   977     242.6 
 172     10592   975     297.1 
 173     12491   973     233.0 
 174     14675   979     250.3 
 175     17187   975     228.7 
 176     20076   974     238.5 
 177     23398   977     220.1 
 178     27218   979     215.2 
 179     31611   980     233.0 
 180     36663   980     198.6 
 181     42473   977     276.0 
 182     49155   978     234.8 
 183     56839   980     245.6 
 184     65676   977     242.6 
 185     75839   981     242.6 
