PC/104 FIRe Fluorometer 2.0.0
 5/14/2025     39158
LED Color:           blue
Gain:               2000
Sample Delay (msec):    10
Number Samples:   3
STF (usec):      150
STRP (#samples):       35
STRI (usec):       60
MTF (ms):        0
MTF (#samples):     0
MTRP (#samples):        0
MTRI (usec):      100
PQLen:     4
Ambient Light Source Power: Off
PAR (uMol/m^2/s):447.17
Comment:
Depth(m):   2.0
Temperature(C):  34.2
Battery(V):  16.51

         Time    EX   Fl-Yield 
DATA--------------------------
   0         0     0       0.0 
   1         1   156     467.9 
   2         2   817     385.1 
   3         3   953     414.1 
   4         4   969     472.3 
   5         5   972     471.5 
   6         6   973     445.4 
   7         7   973     429.3 
   8         8   977     419.3 
   9         9   974     509.9 
  10        10   975     465.0 
  11        11   976     455.3 
  12        12   977     453.8 
  13        13   977     466.7 
  14        14   977     447.6 
  15        15   977     512.5 
  16        16   978     429.8 
  17        17   980     521.4 
  18        18   977     458.2 
  19        19   978     461.8 
  20        20   979     482.8 
  21        21   980     480.6 
  22        22   979     517.9 
  23        23   979     495.1 
  24        24   979     493.4 
  25        25   980     500.0 
  26        26   980     540.8 
  27        27   978     545.7 
  28        28   980     517.7 
  29        29   980     522.4 
  30        30   980     568.0 
  31        31   980     506.5 
  32        32   980     557.8 
  33        33   980     525.5 
  34        34   981     580.7 
  35        35   981     554.2 
  36        36   980     510.9 
  37        37   981     534.1 
  38        38   980     549.7 
  39        39   981     587.8 
  40        40   980     512.2 
  41        41   981     564.7 
  42        42   980     556.1 
  43        43   982     583.2 
  44        44   981     572.9 
  45        45   980     600.3 
  46        46   981     551.8 
  47        47   982     596.1 
  48        48   982     571.3 
  49        49   981     494.4 
  50        50   981     609.9 
  51        51   980     564.3 
  52        52   983     545.6 
  53        53   981     563.7 
  54        54   981     538.9 
  55        55   981     571.2 
  56        56   982     575.4 
  57        57   982     554.3 
  58        58   981     565.4 
  59        59   981     546.0 
  60        60   980     612.2 
  61        61   983     518.8 
  62        62   981     500.8 
  63        63   981     541.6 
  64        64   981     525.7 
  65        65   982     562.5 
  66        66   982     529.5 
  67        67   981     527.0 
  68        68   981     515.8 
  69        69   981     589.5 
  70        70   983     530.0 
  71        71   980     545.9 
  72        72   981     558.3 
  73        73   981     571.9 
  74        74   982     530.9 
  75        75   981     491.7 
  76        76   980     482.3 
  77        77   980     550.0 
  78        78   982     480.3 
  79        79   982     544.5 
  80        80   980     565.0 
  81        81   981     583.4 
  82        82   980     559.5 
  83        83   982     534.6 
  84        84   980     538.8 
  85        85   980     641.5 
  86        86   980     568.7 
  87        87   982     525.8 
  88        88   981     570.2 
  89        89   980     538.8 
  90        90   981     584.1 
  91        91   981     535.5 
  92        92   982     581.8 
  93        93   980     575.2 
  94        94   980     601.7 
  95        95   980     526.2 
  96        96   982     566.5 
  97        97   981     607.2 
  98        98   980     663.6 
  99        99   980     562.2 
 100       100   980     545.6 
 101       101   981     541.6 
 102       102   980     569.7 
 103       103   980     590.8 
 104       104   980     560.2 
 105       105   982     544.5 
 106       106   980     568.7 
 107       107   980     616.3 
 108       108   980     537.8 
 109       109   981     522.9 
 110       110   980     553.7 
 111       111   980     536.4 
 112       112   980     555.1 
 113       113   980     510.5 
 114       114   981     577.6 
 115       115   980     507.8 
 116       116   980     572.8 
 117       117   980     586.1 
 118       118   980     475.9 
 119       119   980     588.4 
 120       120   979     604.7 
 121       121   980     585.4 
 122       122   980     544.6 
 123       123   981     635.1 
 124       124   979     539.3 
 125       125   980     549.0 
 126       126   980     503.1 
 127       127   981     575.6 
 128       128   980     595.9 
 129       129   979     576.1 
 130       130   979     563.2 
 131       131   980     563.3 
 132       132   980     598.0 
 133       133   979     571.0 
 134       134   979     520.9 
 135       135   979     577.5 
 136       136   980     569.4 
 137       137   979     581.5 
 138       138   979     539.7 
 139       139   979     579.5 
 140       140   980     604.1 
 141       141   980     532.0 
 142       142   978     591.3 
 143       143   980     640.5 
 144       144   979     628.9 
 145       145   980     584.7 
 146       146   978     552.5 
 147       147   979     602.3 
 148       148   979     587.0 
 149       149   979     607.4 
 150       150   979     607.4 
 151       210  1000     536.0 
 152       270   997     583.8 
 153       330  1000     530.0 
 154       390   996     569.6 
 155       450   996     462.5 
 156       510   996     543.8 
 157       570   994     504.4 
 158       630   998     581.2 
 159       810   983     514.4 
 160       990   980     504.4 
 161      1170   985     467.0 
 162      1350   986     454.0 
 163      1530   981     457.7 
 164      2070   980     387.4 
 165      2691   973     483.0 
 166      3405   978     498.6 
 167      4226   978     357.2 
 168      5170   976     438.2 
 169      6256   975     528.9 
 170      7505   974     426.8 
 171      8941   977     435.0 
 172     10592   975     302.2 
 173     12491   973     463.5 
 174     14675   979     438.9 
 175     17187   975     419.1 
 176     20076   974     406.2 
 177     23398   977     405.0 
 178     27218   979     381.7 
 179     31611   980     381.6 
 180     36663   980     316.0 
 181     42473   977     429.5 
 182     49155   978     389.9 
 183     56839   980     404.8 
 184     65676   977     371.5 
 185     75839   981     371.5 
   1         1   156     489.3 
   2         2   817     453.7 
   3         3   953     458.6 
   4         4   969     482.6 
   5         5   972     449.9 
   6         6   973     433.7 
   7         7   973     408.7 
   8         8   977     548.6 
   9         9   974     586.2 
  10        10   975     513.8 
  11        11   976     530.7 
  12        12   977     540.1 
  13        13   977     551.3 
  14        14   977     643.1 
  15        15   977     579.3 
  16        16   978     591.0 
  17        17   980     615.0 
  18        18   977     643.5 
  19        19   978     553.9 
  20        20   979     555.3 
  21        21   980     547.6 
  22        22   979     584.3 
  23        23   979     516.9 
  24        24   979     477.0 
  25        25   980     512.6 
  26        26   980     565.0 
  27        27   978     511.9 
  28        28   980     481.0 
  29        29   980     566.7 
  30        30   980     571.1 
  31        31   980     508.2 
  32        32   980     559.2 
  33        33   980     517.7 
  34        34   981     579.3 
  35        35   981     547.7 
  36        36   980     507.8 
  37        37   981     539.6 
  38        38   980     608.2 
  39        39   981     625.6 
  40        40   980     568.7 
  41        41   981     521.9 
  42        42   980     555.8 
  43        43   982     595.0 
  44        44   981     548.1 
  45        45   980     541.8 
  46        46   981     590.9 
  47        47   982     568.2 
  48        48   982     557.0 
  49        49   981     546.0 
  50        50   981     577.3 
  51        51   980     657.8 
  52        52   983     614.4 
  53        53   981     586.1 
  54        54   981     542.6 
  55        55   981     602.1 
  56        56   982     606.6 
  57        57   982     560.4 
  58        58   981     493.4 
  59        59   981     571.5 
  60        60   980     613.6 
  61        61   983     576.8 
  62        62   981     544.7 
  63        63   981     583.4 
  64        64   981     611.6 
  65        65   982     585.5 
  66        66   982     467.4 
  67        67   981     571.5 
  68        68   981     578.0 
  69        69   981     558.6 
  70        70   983     537.1 
  71        71   980     498.0 
  72        72   981     550.1 
  73        73   981     603.1 
  74        74   982     524.4 
  75        75   981     515.8 
  76        76   980     598.6 
  77        77   980     573.5 
  78        78   982     516.3 
  79        79   982     476.2 
  80        80   980     565.3 
  81        81   981     573.9 
  82        82   980     555.1 
  83        83   982     487.8 
  84        84   980     512.6 
  85        85   980     583.3 
  86        86   980     549.0 
  87        87   982     534.3 
  88        88   981     503.2 
  89        89   980     542.9 
  90        90   981     556.2 
  91        91   981     481.8 
  92        92   982     488.1 
  93        93   980     537.4 
  94        94   980     579.3 
  95        95   980     508.5 
  96        96   982     517.0 
  97        97   981     522.6 
  98        98   980     581.3 
  99        99   980     511.2 
 100       100   980     453.4 
 101       101   981     512.4 
 102       102   980     634.4 
 103       103   980     546.9 
 104       104   980     508.5 
 105       105   982     496.6 
 106       106   980     556.8 
 107       107   980     622.4 
 108       108   980     542.9 
 109       109   981     499.8 
 110       110   980     536.1 
 111       111   980     566.0 
 112       112   980     521.8 
 113       113   980     529.3 
 114       114   981     487.9 
 115       115   980     569.4 
 116       116   980     537.4 
 117       117   980     451.7 
 118       118   980     503.7 
 119       119   980     578.6 
 120       120   979     563.2 
 121       121   980     490.8 
 122       122   980     530.3 
 123       123   981     578.3 
 124       124   979     596.9 
 125       125   980     561.9 
 126       126   980     573.1 
 127       127   981     530.4 
 128       128   980     581.0 
 129       129   979     517.9 
 130       130   979     505.6 
 131       131   980     508.5 
 132       132   980     454.1 
 133       133   979     564.2 
 134       134   979     497.8 
 135       135   979     468.2 
 136       136   980     586.7 
 137       137   979     584.3 
 138       138   979     529.5 
 139       139   979     531.5 
 140       140   980     546.6 
 141       141   980     563.3 
 142       142   978     549.1 
 143       143   980     527.6 
 144       144   979     531.5 
 145       145   980     609.5 
 146       146   978     501.7 
 147       147   979     510.0 
 148       148   979     560.8 
 149       149   979     505.3 
 150       150   979     505.3 
 151       210  1000     596.0 
 152       270   997     706.1 
 153       330  1000     550.3 
 154       390   996     674.7 
 155       450   996     529.5 
 156       510   996     472.6 
 157       570   994     432.9 
 158       630   998     419.8 
 159       810   983     563.2 
 160       990   980     367.0 
 161      1170   985     450.8 
 162      1350   986     597.0 
 163      1530   981     376.8 
 164      2070   980     532.7 
 165      2691   973     589.9 
 166      3405   978     436.9 
 167      4226   978     417.9 
 168      5170   976     577.2 
 169      6256   975     396.6 
 170      7505   974     526.4 
 171      8941   977     495.4 
 172     10592   975     401.4 
 173     12491   973     448.8 
 174     14675   979     344.2 
 175     17187   975     259.1 
 176     20076   974     468.2 
 177     23398   977     441.1 
 178     27218   979     289.4 
 179     31611   980     522.1 
 180     36663   980     551.4 
 181     42473   977     336.4 
 182     49155   978     408.0 
 183     56839   980     367.7 
 184     65676   977     392.7 
 185     75839   981     392.7 
